#  E (eV)   dos(E)     Int dos(E) EFermi =    4.702 eV
 -20.000  0.0000E+00  0.0000E+00
 -19.990  0.0000E+00  0.0000E+00
 -19.980  0.0000E+00  0.0000E+00
 -19.970  0.0000E+00  0.0000E+00
 -19.960  0.0000E+00  0.0000E+00
 -19.950  0.0000E+00  0.0000E+00
 -19.940  0.0000E+00  0.0000E+00
 -19.930  0.0000E+00  0.0000E+00
 -19.920  0.0000E+00  0.0000E+00
 -19.910  0.0000E+00  0.0000E+00
 -19.900  0.0000E+00  0.0000E+00
 -19.890  0.0000E+00  0.0000E+00
 -19.880  0.0000E+00  0.0000E+00
 -19.870  0.0000E+00  0.0000E+00
 -19.860  0.0000E+00  0.0000E+00
 -19.850  0.0000E+00  0.0000E+00
 -19.840  0.0000E+00  0.0000E+00
 -19.830  0.0000E+00  0.0000E+00
 -19.820  0.0000E+00  0.0000E+00
 -19.810  0.0000E+00  0.0000E+00
 -19.800  0.0000E+00  0.0000E+00
 -19.790  0.0000E+00  0.0000E+00
 -19.780  0.0000E+00  0.0000E+00
 -19.770  0.0000E+00  0.0000E+00
 -19.760  0.0000E+00  0.0000E+00
 -19.750  0.0000E+00  0.0000E+00
 -19.740  0.0000E+00  0.0000E+00
 -19.730  0.0000E+00  0.0000E+00
 -19.720  0.0000E+00  0.0000E+00
 -19.710  0.0000E+00  0.0000E+00
 -19.700  0.0000E+00  0.0000E+00
 -19.690  0.0000E+00  0.0000E+00
 -19.680  0.0000E+00  0.0000E+00
 -19.670  0.0000E+00  0.0000E+00
 -19.660  0.0000E+00  0.0000E+00
 -19.650  0.0000E+00  0.0000E+00
 -19.640  0.0000E+00  0.0000E+00
 -19.630  0.0000E+00  0.0000E+00
 -19.620  0.0000E+00  0.0000E+00
 -19.610  0.0000E+00  0.0000E+00
 -19.600  0.0000E+00  0.0000E+00
 -19.590  0.0000E+00  0.0000E+00
 -19.580  0.0000E+00  0.0000E+00
 -19.570  0.0000E+00  0.0000E+00
 -19.560  0.0000E+00  0.0000E+00
 -19.550  0.0000E+00  0.0000E+00
 -19.540  0.0000E+00  0.0000E+00
 -19.530  0.0000E+00  0.0000E+00
 -19.520  0.0000E+00  0.0000E+00
 -19.510  0.0000E+00  0.0000E+00
 -19.500  0.0000E+00  0.0000E+00
 -19.490  0.0000E+00  0.0000E+00
 -19.480  0.0000E+00  0.0000E+00
 -19.470  0.0000E+00  0.0000E+00
 -19.460  0.0000E+00  0.0000E+00
 -19.450  0.0000E+00  0.0000E+00
 -19.440  0.0000E+00  0.0000E+00
 -19.430  0.0000E+00  0.0000E+00
 -19.420  0.0000E+00  0.0000E+00
 -19.410  0.0000E+00  0.0000E+00
 -19.400  0.0000E+00  0.0000E+00
 -19.390  0.0000E+00  0.0000E+00
 -19.380  0.0000E+00  0.0000E+00
 -19.370  0.0000E+00  0.0000E+00
 -19.360  0.0000E+00  0.0000E+00
 -19.350  0.0000E+00  0.0000E+00
 -19.340  0.0000E+00  0.0000E+00
 -19.330  0.0000E+00  0.0000E+00
 -19.320  0.0000E+00  0.0000E+00
 -19.310  0.0000E+00  0.0000E+00
 -19.300  0.0000E+00  0.0000E+00
 -19.290  0.0000E+00  0.0000E+00
 -19.280  0.0000E+00  0.0000E+00
 -19.270  0.0000E+00  0.0000E+00
 -19.260  0.0000E+00  0.0000E+00
 -19.250  0.0000E+00  0.0000E+00
 -19.240  0.0000E+00  0.0000E+00
 -19.230  0.0000E+00  0.0000E+00
 -19.220  0.0000E+00  0.0000E+00
 -19.210  0.0000E+00  0.0000E+00
 -19.200  0.0000E+00  0.0000E+00
 -19.190  0.0000E+00  0.0000E+00
 -19.180  0.0000E+00  0.0000E+00
 -19.170  0.0000E+00  0.0000E+00
 -19.160  0.0000E+00  0.0000E+00
 -19.150  0.0000E+00  0.0000E+00
 -19.140  0.0000E+00  0.0000E+00
 -19.130  0.0000E+00  0.0000E+00
 -19.120  0.0000E+00  0.0000E+00
 -19.110  0.0000E+00  0.0000E+00
 -19.100  0.0000E+00  0.0000E+00
 -19.090  0.0000E+00  0.0000E+00
 -19.080  0.0000E+00  0.0000E+00
 -19.070  0.0000E+00  0.0000E+00
 -19.060  0.0000E+00  0.0000E+00
 -19.050  0.0000E+00  0.0000E+00
 -19.040  0.0000E+00  0.0000E+00
 -19.030  0.0000E+00  0.0000E+00
 -19.020  0.0000E+00  0.0000E+00
 -19.010  0.0000E+00  0.0000E+00
 -19.000  0.0000E+00  0.0000E+00
 -18.990  0.0000E+00  0.0000E+00
 -18.980  0.0000E+00  0.0000E+00
 -18.970  0.0000E+00  0.0000E+00
 -18.960  0.0000E+00  0.0000E+00
 -18.950  0.0000E+00  0.0000E+00
 -18.940  0.0000E+00  0.0000E+00
 -18.930  0.0000E+00  0.0000E+00
 -18.920  0.0000E+00  0.0000E+00
 -18.910  0.0000E+00  0.0000E+00
 -18.900  0.0000E+00  0.0000E+00
 -18.890  0.0000E+00  0.0000E+00
 -18.880  0.0000E+00  0.0000E+00
 -18.870  0.0000E+00  0.0000E+00
 -18.860  0.0000E+00  0.0000E+00
 -18.850  0.0000E+00  0.0000E+00
 -18.840  0.0000E+00  0.0000E+00
 -18.830  0.0000E+00  0.0000E+00
 -18.820  0.0000E+00  0.0000E+00
 -18.810  0.0000E+00  0.0000E+00
 -18.800  0.0000E+00  0.0000E+00
 -18.790  0.0000E+00  0.0000E+00
 -18.780  0.0000E+00  0.0000E+00
 -18.770  0.0000E+00  0.0000E+00
 -18.760  0.0000E+00  0.0000E+00
 -18.750  0.0000E+00  0.0000E+00
 -18.740  0.0000E+00  0.0000E+00
 -18.730  0.0000E+00  0.0000E+00
 -18.720  0.0000E+00  0.0000E+00
 -18.710  0.0000E+00  0.0000E+00
 -18.700  0.0000E+00  0.0000E+00
 -18.690  0.0000E+00  0.0000E+00
 -18.680  0.0000E+00  0.0000E+00
 -18.670  0.0000E+00  0.0000E+00
 -18.660  0.0000E+00  0.0000E+00
 -18.650  0.0000E+00  0.0000E+00
 -18.640  0.0000E+00  0.0000E+00
 -18.630  0.0000E+00  0.0000E+00
 -18.620  0.0000E+00  0.0000E+00
 -18.610  0.0000E+00  0.0000E+00
 -18.600  0.0000E+00  0.0000E+00
 -18.590  0.0000E+00  0.0000E+00
 -18.580  0.0000E+00  0.0000E+00
 -18.570  0.0000E+00  0.0000E+00
 -18.560  0.0000E+00  0.0000E+00
 -18.550  0.0000E+00  0.0000E+00
 -18.540  0.0000E+00  0.0000E+00
 -18.530  0.0000E+00  0.0000E+00
 -18.520  0.0000E+00  0.0000E+00
 -18.510  0.0000E+00  0.0000E+00
 -18.500  0.0000E+00  0.0000E+00
 -18.490  0.0000E+00  0.0000E+00
 -18.480  0.0000E+00  0.0000E+00
 -18.470  0.0000E+00  0.0000E+00
 -18.460  0.0000E+00  0.0000E+00
 -18.450  0.0000E+00  0.0000E+00
 -18.440  0.0000E+00  0.0000E+00
 -18.430  0.0000E+00  0.0000E+00
 -18.420  0.0000E+00  0.0000E+00
 -18.410  0.0000E+00  0.0000E+00
 -18.400  0.0000E+00  0.0000E+00
 -18.390  0.0000E+00  0.0000E+00
 -18.380  0.0000E+00  0.0000E+00
 -18.370  0.0000E+00  0.0000E+00
 -18.360  0.0000E+00  0.0000E+00
 -18.350  0.0000E+00  0.0000E+00
 -18.340  0.0000E+00  0.0000E+00
 -18.330  0.0000E+00  0.0000E+00
 -18.320  0.0000E+00  0.0000E+00
 -18.310  0.0000E+00  0.0000E+00
 -18.300  0.0000E+00  0.0000E+00
 -18.290  0.0000E+00  0.0000E+00
 -18.280  0.0000E+00  0.0000E+00
 -18.270  0.0000E+00  0.0000E+00
 -18.260  0.0000E+00  0.0000E+00
 -18.250  0.0000E+00  0.0000E+00
 -18.240  0.0000E+00  0.0000E+00
 -18.230  0.0000E+00  0.0000E+00
 -18.220  0.0000E+00  0.0000E+00
 -18.210  0.0000E+00  0.0000E+00
 -18.200  0.0000E+00  0.0000E+00
 -18.190  0.0000E+00  0.0000E+00
 -18.180  0.0000E+00  0.0000E+00
 -18.170  0.0000E+00  0.0000E+00
 -18.160  0.0000E+00  0.0000E+00
 -18.150  0.0000E+00  0.0000E+00
 -18.140  0.0000E+00  0.0000E+00
 -18.130  0.0000E+00  0.0000E+00
 -18.120  0.0000E+00  0.0000E+00
 -18.110  0.0000E+00  0.0000E+00
 -18.100  0.0000E+00  0.0000E+00
 -18.090  0.0000E+00  0.0000E+00
 -18.080  0.0000E+00  0.0000E+00
 -18.070  0.0000E+00  0.0000E+00
 -18.060  0.0000E+00  0.0000E+00
 -18.050  0.0000E+00  0.0000E+00
 -18.040  0.0000E+00  0.0000E+00
 -18.030  0.0000E+00  0.0000E+00
 -18.020  0.0000E+00  0.0000E+00
 -18.010  0.0000E+00  0.0000E+00
 -18.000  0.0000E+00  0.0000E+00
 -17.990  0.0000E+00  0.0000E+00
 -17.980  0.0000E+00  0.0000E+00
 -17.970  0.0000E+00  0.0000E+00
 -17.960  0.0000E+00  0.0000E+00
 -17.950  0.0000E+00  0.0000E+00
 -17.940  0.0000E+00  0.0000E+00
 -17.930  0.0000E+00  0.0000E+00
 -17.920  0.0000E+00  0.0000E+00
 -17.910  0.0000E+00  0.0000E+00
 -17.900  0.0000E+00  0.0000E+00
 -17.890  0.0000E+00  0.0000E+00
 -17.880  0.0000E+00  0.0000E+00
 -17.870  0.0000E+00  0.0000E+00
 -17.860  0.0000E+00  0.0000E+00
 -17.850  0.0000E+00  0.0000E+00
 -17.840  0.0000E+00  0.0000E+00
 -17.830  0.0000E+00  0.0000E+00
 -17.820  0.0000E+00  0.0000E+00
 -17.810  0.0000E+00  0.0000E+00
 -17.800  0.0000E+00  0.0000E+00
 -17.790  0.0000E+00  0.0000E+00
 -17.780  0.0000E+00  0.0000E+00
 -17.770  0.0000E+00  0.2000E+01
 -17.760  0.0000E+00  0.2000E+01
 -17.750  0.0000E+00  0.2000E+01
 -17.740  0.0000E+00  0.2000E+01
 -17.730  0.0000E+00  0.2000E+01
 -17.720  0.0000E+00  0.2000E+01
 -17.710  0.0000E+00  0.2000E+01
 -17.700  0.0000E+00  0.2000E+01
 -17.690  0.0000E+00  0.2000E+01
 -17.680  0.0000E+00  0.2000E+01
 -17.670  0.0000E+00  0.2000E+01
 -17.660  0.0000E+00  0.2000E+01
 -17.650  0.0000E+00  0.2000E+01
 -17.640  0.0000E+00  0.2000E+01
 -17.630  0.0000E+00  0.2000E+01
 -17.620  0.0000E+00  0.2000E+01
 -17.610  0.0000E+00  0.2000E+01
 -17.600  0.0000E+00  0.2000E+01
 -17.590  0.0000E+00  0.2000E+01
 -17.580  0.0000E+00  0.2000E+01
 -17.570  0.0000E+00  0.2000E+01
 -17.560  0.0000E+00  0.2000E+01
 -17.550  0.0000E+00  0.2000E+01
 -17.540  0.0000E+00  0.2000E+01
 -17.530  0.0000E+00  0.2000E+01
 -17.520  0.0000E+00  0.2000E+01
 -17.510  0.0000E+00  0.6000E+01
 -17.500  0.0000E+00  0.6000E+01
 -17.490  0.1564E+05  0.7300E+01
 -17.480  0.0000E+00  0.1200E+02
 -17.470  0.0000E+00  0.1200E+02
 -17.460  0.0000E+00  0.1200E+02
 -17.450  0.0000E+00  0.1200E+02
 -17.440  0.0000E+00  0.1200E+02
 -17.430  0.0000E+00  0.1200E+02
 -17.420  0.0000E+00  0.1200E+02
 -17.410  0.0000E+00  0.1200E+02
 -17.400  0.0000E+00  0.1200E+02
 -17.390  0.0000E+00  0.1200E+02
 -17.380  0.0000E+00  0.1200E+02
 -17.370  0.0000E+00  0.1200E+02
 -17.360  0.0000E+00  0.1200E+02
 -17.350  0.0000E+00  0.1200E+02
 -17.340  0.0000E+00  0.1200E+02
 -17.330  0.0000E+00  0.1200E+02
 -17.320  0.0000E+00  0.1200E+02
 -17.310  0.0000E+00  0.1200E+02
 -17.300  0.0000E+00  0.1200E+02
 -17.290  0.0000E+00  0.1200E+02
 -17.280  0.0000E+00  0.1200E+02
 -17.270  0.0000E+00  0.1200E+02
 -17.260  0.0000E+00  0.1200E+02
 -17.250  0.0000E+00  0.1200E+02
 -17.240  0.0000E+00  0.1200E+02
 -17.230  0.0000E+00  0.1200E+02
 -17.220  0.0000E+00  0.1200E+02
 -17.210  0.0000E+00  0.1200E+02
 -17.200  0.0000E+00  0.1200E+02
 -17.190  0.0000E+00  0.1200E+02
 -17.180  0.0000E+00  0.1200E+02
 -17.170  0.0000E+00  0.1200E+02
 -17.160  0.0000E+00  0.1200E+02
 -17.150  0.0000E+00  0.1200E+02
 -17.140  0.0000E+00  0.1200E+02
 -17.130  0.0000E+00  0.1200E+02
 -17.120  0.0000E+00  0.1200E+02
 -17.110  0.0000E+00  0.1200E+02
 -17.100  0.0000E+00  0.1200E+02
 -17.090  0.0000E+00  0.1200E+02
 -17.080  0.0000E+00  0.1200E+02
 -17.070  0.0000E+00  0.1200E+02
 -17.060  0.0000E+00  0.1200E+02
 -17.050  0.0000E+00  0.1200E+02
 -17.040  0.0000E+00  0.1200E+02
 -17.030  0.0000E+00  0.1200E+02
 -17.020  0.0000E+00  0.1200E+02
 -17.010  0.0000E+00  0.1200E+02
 -17.000  0.0000E+00  0.1200E+02
 -16.990  0.0000E+00  0.1200E+02
 -16.980  0.0000E+00  0.1200E+02
 -16.970  0.0000E+00  0.1200E+02
 -16.960  0.0000E+00  0.1200E+02
 -16.950  0.0000E+00  0.1200E+02
 -16.940  0.0000E+00  0.1200E+02
 -16.930  0.0000E+00  0.1200E+02
 -16.920  0.0000E+00  0.1200E+02
 -16.910  0.0000E+00  0.1200E+02
 -16.900  0.0000E+00  0.1200E+02
 -16.890  0.0000E+00  0.1200E+02
 -16.880  0.0000E+00  0.1200E+02
 -16.870  0.0000E+00  0.1200E+02
 -16.860  0.0000E+00  0.1200E+02
 -16.850  0.0000E+00  0.1200E+02
 -16.840  0.0000E+00  0.1200E+02
 -16.830  0.0000E+00  0.1200E+02
 -16.820  0.0000E+00  0.1200E+02
 -16.810  0.0000E+00  0.1200E+02
 -16.800  0.0000E+00  0.1200E+02
 -16.790  0.0000E+00  0.1200E+02
 -16.780  0.0000E+00  0.1200E+02
 -16.770  0.0000E+00  0.1200E+02
 -16.760  0.0000E+00  0.1200E+02
 -16.750  0.0000E+00  0.1200E+02
 -16.740  0.0000E+00  0.1200E+02
 -16.730  0.0000E+00  0.1200E+02
 -16.720  0.0000E+00  0.1200E+02
 -16.710  0.0000E+00  0.1200E+02
 -16.700  0.0000E+00  0.1200E+02
 -16.690  0.0000E+00  0.1200E+02
 -16.680  0.0000E+00  0.1200E+02
 -16.670  0.0000E+00  0.1200E+02
 -16.660  0.0000E+00  0.1200E+02
 -16.650  0.0000E+00  0.1200E+02
 -16.640  0.0000E+00  0.1200E+02
 -16.630  0.0000E+00  0.1200E+02
 -16.620  0.0000E+00  0.1200E+02
 -16.610  0.0000E+00  0.1200E+02
 -16.600  0.0000E+00  0.1200E+02
 -16.590  0.0000E+00  0.1200E+02
 -16.580  0.0000E+00  0.1200E+02
 -16.570  0.0000E+00  0.1200E+02
 -16.560  0.0000E+00  0.1200E+02
 -16.550  0.0000E+00  0.1200E+02
 -16.540  0.0000E+00  0.1200E+02
 -16.530  0.0000E+00  0.1200E+02
 -16.520  0.0000E+00  0.1200E+02
 -16.510  0.0000E+00  0.1200E+02
 -16.500  0.0000E+00  0.1200E+02
 -16.490  0.0000E+00  0.1200E+02
 -16.480  0.0000E+00  0.1200E+02
 -16.470  0.0000E+00  0.1200E+02
 -16.460  0.0000E+00  0.1200E+02
 -16.450  0.0000E+00  0.1200E+02
 -16.440  0.0000E+00  0.1200E+02
 -16.430  0.0000E+00  0.1200E+02
 -16.420  0.0000E+00  0.1200E+02
 -16.410  0.0000E+00  0.1200E+02
 -16.400  0.0000E+00  0.1200E+02
 -16.390  0.0000E+00  0.1200E+02
 -16.380  0.0000E+00  0.1200E+02
 -16.370  0.0000E+00  0.1200E+02
 -16.360  0.0000E+00  0.1200E+02
 -16.350  0.0000E+00  0.1200E+02
 -16.340  0.0000E+00  0.1200E+02
 -16.330  0.0000E+00  0.1200E+02
 -16.320  0.0000E+00  0.1200E+02
 -16.310  0.0000E+00  0.1200E+02
 -16.300  0.0000E+00  0.1200E+02
 -16.290  0.0000E+00  0.1200E+02
 -16.280  0.0000E+00  0.1200E+02
 -16.270  0.0000E+00  0.1200E+02
 -16.260  0.0000E+00  0.1200E+02
 -16.250  0.0000E+00  0.1200E+02
 -16.240  0.0000E+00  0.1200E+02
 -16.230  0.0000E+00  0.1200E+02
 -16.220  0.0000E+00  0.1200E+02
 -16.210  0.0000E+00  0.1200E+02
 -16.200  0.0000E+00  0.1200E+02
 -16.190  0.0000E+00  0.1200E+02
 -16.180  0.0000E+00  0.1200E+02
 -16.170  0.0000E+00  0.1200E+02
 -16.160  0.0000E+00  0.1200E+02
 -16.150  0.0000E+00  0.1200E+02
 -16.140  0.0000E+00  0.1200E+02
 -16.130  0.0000E+00  0.1200E+02
 -16.120  0.0000E+00  0.1200E+02
 -16.110  0.0000E+00  0.1200E+02
 -16.100  0.0000E+00  0.1200E+02
 -16.090  0.0000E+00  0.1200E+02
 -16.080  0.0000E+00  0.1200E+02
 -16.070  0.0000E+00  0.1200E+02
 -16.060  0.0000E+00  0.1200E+02
 -16.050  0.0000E+00  0.1200E+02
 -16.040  0.0000E+00  0.1200E+02
 -16.030  0.0000E+00  0.1200E+02
 -16.020  0.0000E+00  0.1200E+02
 -16.010  0.0000E+00  0.1200E+02
 -16.000  0.0000E+00  0.1200E+02
 -15.990  0.0000E+00  0.1200E+02
 -15.980  0.0000E+00  0.1200E+02
 -15.970  0.0000E+00  0.1200E+02
 -15.960  0.0000E+00  0.1200E+02
 -15.950  0.0000E+00  0.1200E+02
 -15.940  0.0000E+00  0.1200E+02
 -15.930  0.0000E+00  0.1200E+02
 -15.920  0.0000E+00  0.1200E+02
 -15.910  0.0000E+00  0.1200E+02
 -15.900  0.0000E+00  0.1200E+02
 -15.890  0.0000E+00  0.1200E+02
 -15.880  0.0000E+00  0.1200E+02
 -15.870  0.0000E+00  0.1200E+02
 -15.860  0.0000E+00  0.1200E+02
 -15.850  0.0000E+00  0.1200E+02
 -15.840  0.0000E+00  0.1200E+02
 -15.830  0.0000E+00  0.1200E+02
 -15.820  0.0000E+00  0.1200E+02
 -15.810  0.0000E+00  0.1200E+02
 -15.800  0.0000E+00  0.1200E+02
 -15.790  0.0000E+00  0.1200E+02
 -15.780  0.0000E+00  0.1200E+02
 -15.770  0.0000E+00  0.1200E+02
 -15.760  0.0000E+00  0.1200E+02
 -15.750  0.0000E+00  0.1200E+02
 -15.740  0.0000E+00  0.1200E+02
 -15.730  0.0000E+00  0.1200E+02
 -15.720  0.0000E+00  0.1200E+02
 -15.710  0.0000E+00  0.1200E+02
 -15.700  0.0000E+00  0.1200E+02
 -15.690  0.0000E+00  0.1200E+02
 -15.680  0.0000E+00  0.1200E+02
 -15.670  0.0000E+00  0.1200E+02
 -15.660  0.0000E+00  0.1200E+02
 -15.650  0.0000E+00  0.1200E+02
 -15.640  0.0000E+00  0.1200E+02
 -15.630  0.0000E+00  0.1200E+02
 -15.620  0.0000E+00  0.1200E+02
 -15.610  0.0000E+00  0.1200E+02
 -15.600  0.0000E+00  0.1200E+02
 -15.590  0.0000E+00  0.1200E+02
 -15.580  0.0000E+00  0.1200E+02
 -15.570  0.0000E+00  0.1200E+02
 -15.560  0.0000E+00  0.1200E+02
 -15.550  0.0000E+00  0.1200E+02
 -15.540  0.0000E+00  0.1200E+02
 -15.530  0.0000E+00  0.1200E+02
 -15.520  0.0000E+00  0.1200E+02
 -15.510  0.0000E+00  0.1200E+02
 -15.500  0.0000E+00  0.1200E+02
 -15.490  0.0000E+00  0.1200E+02
 -15.480  0.0000E+00  0.1200E+02
 -15.470  0.0000E+00  0.1200E+02
 -15.460  0.0000E+00  0.1200E+02
 -15.450  0.0000E+00  0.1200E+02
 -15.440  0.0000E+00  0.1200E+02
 -15.430  0.0000E+00  0.1200E+02
 -15.420  0.0000E+00  0.1200E+02
 -15.410  0.0000E+00  0.1200E+02
 -15.400  0.0000E+00  0.1200E+02
 -15.390  0.0000E+00  0.1200E+02
 -15.380  0.0000E+00  0.1200E+02
 -15.370  0.0000E+00  0.1200E+02
 -15.360  0.0000E+00  0.1200E+02
 -15.350  0.0000E+00  0.1200E+02
 -15.340  0.0000E+00  0.1200E+02
 -15.330  0.0000E+00  0.1200E+02
 -15.320  0.0000E+00  0.1200E+02
 -15.310  0.0000E+00  0.1200E+02
 -15.300  0.0000E+00  0.1200E+02
 -15.290  0.0000E+00  0.1200E+02
 -15.280  0.0000E+00  0.1200E+02
 -15.270  0.0000E+00  0.1200E+02
 -15.260  0.0000E+00  0.1200E+02
 -15.250  0.0000E+00  0.1200E+02
 -15.240  0.0000E+00  0.1200E+02
 -15.230  0.0000E+00  0.1200E+02
 -15.220  0.0000E+00  0.1200E+02
 -15.210  0.0000E+00  0.1200E+02
 -15.200  0.0000E+00  0.1200E+02
 -15.190  0.0000E+00  0.1200E+02
 -15.180  0.0000E+00  0.1200E+02
 -15.170  0.0000E+00  0.1200E+02
 -15.160  0.0000E+00  0.1200E+02
 -15.150  0.0000E+00  0.1200E+02
 -15.140  0.0000E+00  0.1200E+02
 -15.130  0.0000E+00  0.1200E+02
 -15.120  0.0000E+00  0.1200E+02
 -15.110  0.0000E+00  0.1200E+02
 -15.100  0.0000E+00  0.1200E+02
 -15.090  0.0000E+00  0.1200E+02
 -15.080  0.0000E+00  0.1200E+02
 -15.070  0.0000E+00  0.1200E+02
 -15.060  0.0000E+00  0.1200E+02
 -15.050  0.0000E+00  0.1200E+02
 -15.040  0.0000E+00  0.1200E+02
 -15.030  0.0000E+00  0.1200E+02
 -15.020  0.0000E+00  0.1200E+02
 -15.010  0.0000E+00  0.1200E+02
 -15.000  0.0000E+00  0.1200E+02
 -14.990  0.0000E+00  0.1200E+02
 -14.980  0.0000E+00  0.1200E+02
 -14.970  0.0000E+00  0.1200E+02
 -14.960  0.0000E+00  0.1200E+02
 -14.950  0.0000E+00  0.1200E+02
 -14.940  0.0000E+00  0.1200E+02
 -14.930  0.0000E+00  0.1200E+02
 -14.920  0.0000E+00  0.1200E+02
 -14.910  0.0000E+00  0.1200E+02
 -14.900  0.0000E+00  0.1200E+02
 -14.890  0.0000E+00  0.1200E+02
 -14.880  0.0000E+00  0.1200E+02
 -14.870  0.0000E+00  0.1200E+02
 -14.860  0.0000E+00  0.1200E+02
 -14.850  0.0000E+00  0.1200E+02
 -14.840  0.0000E+00  0.1200E+02
 -14.830  0.0000E+00  0.1200E+02
 -14.820  0.0000E+00  0.1200E+02
 -14.810  0.0000E+00  0.1200E+02
 -14.800  0.0000E+00  0.1200E+02
 -14.790  0.0000E+00  0.1200E+02
 -14.780  0.0000E+00  0.1200E+02
 -14.770  0.0000E+00  0.1200E+02
 -14.760  0.0000E+00  0.1200E+02
 -14.750  0.0000E+00  0.1200E+02
 -14.740  0.0000E+00  0.1200E+02
 -14.730  0.0000E+00  0.1200E+02
 -14.720  0.0000E+00  0.1200E+02
 -14.710  0.0000E+00  0.1200E+02
 -14.700  0.0000E+00  0.1200E+02
 -14.690  0.0000E+00  0.1200E+02
 -14.680  0.0000E+00  0.1200E+02
 -14.670  0.0000E+00  0.1200E+02
 -14.660  0.0000E+00  0.1200E+02
 -14.650  0.0000E+00  0.1200E+02
 -14.640  0.0000E+00  0.1200E+02
 -14.630  0.0000E+00  0.1200E+02
 -14.620  0.0000E+00  0.1200E+02
 -14.610  0.0000E+00  0.1200E+02
 -14.600  0.0000E+00  0.1200E+02
 -14.590  0.0000E+00  0.1200E+02
 -14.580  0.0000E+00  0.1200E+02
 -14.570  0.0000E+00  0.1200E+02
 -14.560  0.0000E+00  0.1200E+02
 -14.550  0.0000E+00  0.1200E+02
 -14.540  0.0000E+00  0.1200E+02
 -14.530  0.0000E+00  0.1200E+02
 -14.520  0.0000E+00  0.1200E+02
 -14.510  0.0000E+00  0.1200E+02
 -14.500  0.0000E+00  0.1200E+02
 -14.490  0.0000E+00  0.1200E+02
 -14.480  0.0000E+00  0.1200E+02
 -14.470  0.0000E+00  0.1200E+02
 -14.460  0.0000E+00  0.1200E+02
 -14.450  0.0000E+00  0.1200E+02
 -14.440  0.0000E+00  0.1200E+02
 -14.430  0.0000E+00  0.1200E+02
 -14.420  0.0000E+00  0.1200E+02
 -14.410  0.0000E+00  0.1200E+02
 -14.400  0.0000E+00  0.1200E+02
 -14.390  0.0000E+00  0.1200E+02
 -14.380  0.0000E+00  0.1200E+02
 -14.370  0.0000E+00  0.1200E+02
 -14.360  0.0000E+00  0.1200E+02
 -14.350  0.0000E+00  0.1200E+02
 -14.340  0.0000E+00  0.1200E+02
 -14.330  0.0000E+00  0.1200E+02
 -14.320  0.0000E+00  0.1200E+02
 -14.310  0.0000E+00  0.1200E+02
 -14.300  0.0000E+00  0.1200E+02
 -14.290  0.0000E+00  0.1200E+02
 -14.280  0.0000E+00  0.1200E+02
 -14.270  0.0000E+00  0.1200E+02
 -14.260  0.0000E+00  0.1200E+02
 -14.250  0.0000E+00  0.1200E+02
 -14.240  0.0000E+00  0.1200E+02
 -14.230  0.0000E+00  0.1200E+02
 -14.220  0.0000E+00  0.1200E+02
 -14.210  0.0000E+00  0.1200E+02
 -14.200  0.0000E+00  0.1200E+02
 -14.190  0.0000E+00  0.1200E+02
 -14.180  0.0000E+00  0.1200E+02
 -14.170  0.0000E+00  0.1200E+02
 -14.160  0.0000E+00  0.1200E+02
 -14.150  0.0000E+00  0.1200E+02
 -14.140  0.0000E+00  0.1200E+02
 -14.130  0.0000E+00  0.1200E+02
 -14.120  0.0000E+00  0.1200E+02
 -14.110  0.0000E+00  0.1200E+02
 -14.100  0.0000E+00  0.1200E+02
 -14.090  0.0000E+00  0.1200E+02
 -14.080  0.0000E+00  0.1200E+02
 -14.070  0.0000E+00  0.1200E+02
 -14.060  0.0000E+00  0.1200E+02
 -14.050  0.0000E+00  0.1200E+02
 -14.040  0.0000E+00  0.1200E+02
 -14.030  0.0000E+00  0.1200E+02
 -14.020  0.0000E+00  0.1200E+02
 -14.010  0.0000E+00  0.1200E+02
 -14.000  0.0000E+00  0.1200E+02
 -13.990  0.0000E+00  0.1200E+02
 -13.980  0.0000E+00  0.1200E+02
 -13.970  0.0000E+00  0.1200E+02
 -13.960  0.0000E+00  0.1200E+02
 -13.950  0.0000E+00  0.1200E+02
 -13.940  0.0000E+00  0.1200E+02
 -13.930  0.0000E+00  0.1200E+02
 -13.920  0.0000E+00  0.1200E+02
 -13.910  0.0000E+00  0.1200E+02
 -13.900  0.0000E+00  0.1200E+02
 -13.890  0.0000E+00  0.1200E+02
 -13.880  0.0000E+00  0.1200E+02
 -13.870  0.0000E+00  0.1200E+02
 -13.860  0.0000E+00  0.1200E+02
 -13.850  0.0000E+00  0.1200E+02
 -13.840  0.0000E+00  0.1200E+02
 -13.830  0.0000E+00  0.1200E+02
 -13.820  0.0000E+00  0.1200E+02
 -13.810  0.0000E+00  0.1200E+02
 -13.800  0.0000E+00  0.1200E+02
 -13.790  0.0000E+00  0.1200E+02
 -13.780  0.0000E+00  0.1200E+02
 -13.770  0.0000E+00  0.1200E+02
 -13.760  0.0000E+00  0.1200E+02
 -13.750  0.0000E+00  0.1200E+02
 -13.740  0.0000E+00  0.1200E+02
 -13.730  0.0000E+00  0.1200E+02
 -13.720  0.0000E+00  0.1200E+02
 -13.710  0.0000E+00  0.1200E+02
 -13.700  0.0000E+00  0.1200E+02
 -13.690  0.0000E+00  0.1200E+02
 -13.680  0.0000E+00  0.1200E+02
 -13.670  0.0000E+00  0.1200E+02
 -13.660  0.0000E+00  0.1200E+02
 -13.650  0.0000E+00  0.1200E+02
 -13.640  0.0000E+00  0.1200E+02
 -13.630  0.0000E+00  0.1200E+02
 -13.620  0.0000E+00  0.1200E+02
 -13.610  0.0000E+00  0.1200E+02
 -13.600  0.0000E+00  0.1200E+02
 -13.590  0.0000E+00  0.1200E+02
 -13.580  0.0000E+00  0.1200E+02
 -13.570  0.0000E+00  0.1200E+02
 -13.560  0.0000E+00  0.1200E+02
 -13.550  0.0000E+00  0.1200E+02
 -13.540  0.0000E+00  0.1200E+02
 -13.530  0.0000E+00  0.1200E+02
 -13.520  0.0000E+00  0.1200E+02
 -13.510  0.0000E+00  0.1200E+02
 -13.500  0.0000E+00  0.1200E+02
 -13.490  0.0000E+00  0.1200E+02
 -13.480  0.0000E+00  0.1200E+02
 -13.470  0.0000E+00  0.1200E+02
 -13.460  0.0000E+00  0.1200E+02
 -13.450  0.0000E+00  0.1200E+02
 -13.440  0.0000E+00  0.1200E+02
 -13.430  0.0000E+00  0.1200E+02
 -13.420  0.0000E+00  0.1200E+02
 -13.410  0.0000E+00  0.1200E+02
 -13.400  0.0000E+00  0.1200E+02
 -13.390  0.0000E+00  0.1200E+02
 -13.380  0.0000E+00  0.1200E+02
 -13.370  0.0000E+00  0.1200E+02
 -13.360  0.0000E+00  0.1200E+02
 -13.350  0.0000E+00  0.1200E+02
 -13.340  0.0000E+00  0.1200E+02
 -13.330  0.0000E+00  0.1200E+02
 -13.320  0.0000E+00  0.1200E+02
 -13.310  0.0000E+00  0.1200E+02
 -13.300  0.0000E+00  0.1200E+02
 -13.290  0.0000E+00  0.1200E+02
 -13.280  0.0000E+00  0.1200E+02
 -13.270  0.0000E+00  0.1200E+02
 -13.260  0.0000E+00  0.1200E+02
 -13.250  0.0000E+00  0.1200E+02
 -13.240  0.0000E+00  0.1200E+02
 -13.230  0.0000E+00  0.1200E+02
 -13.220  0.0000E+00  0.1200E+02
 -13.210  0.0000E+00  0.1200E+02
 -13.200  0.0000E+00  0.1200E+02
 -13.190  0.0000E+00  0.1200E+02
 -13.180  0.0000E+00  0.1200E+02
 -13.170  0.0000E+00  0.1200E+02
 -13.160  0.0000E+00  0.1200E+02
 -13.150  0.0000E+00  0.1200E+02
 -13.140  0.0000E+00  0.1200E+02
 -13.130  0.0000E+00  0.1200E+02
 -13.120  0.0000E+00  0.1200E+02
 -13.110  0.0000E+00  0.1200E+02
 -13.100  0.0000E+00  0.1200E+02
 -13.090  0.0000E+00  0.1200E+02
 -13.080  0.0000E+00  0.1200E+02
 -13.070  0.0000E+00  0.1200E+02
 -13.060  0.0000E+00  0.1200E+02
 -13.050  0.0000E+00  0.1200E+02
 -13.040  0.0000E+00  0.1200E+02
 -13.030  0.0000E+00  0.1200E+02
 -13.020  0.0000E+00  0.1200E+02
 -13.010  0.0000E+00  0.1200E+02
 -13.000  0.0000E+00  0.1200E+02
 -12.990  0.0000E+00  0.1200E+02
 -12.980  0.0000E+00  0.1200E+02
 -12.970  0.0000E+00  0.1200E+02
 -12.960  0.0000E+00  0.1200E+02
 -12.950  0.0000E+00  0.1200E+02
 -12.940  0.0000E+00  0.1200E+02
 -12.930  0.0000E+00  0.1200E+02
 -12.920  0.0000E+00  0.1200E+02
 -12.910  0.0000E+00  0.1200E+02
 -12.900  0.0000E+00  0.1200E+02
 -12.890  0.0000E+00  0.1200E+02
 -12.880  0.0000E+00  0.1200E+02
 -12.870  0.0000E+00  0.1200E+02
 -12.860  0.0000E+00  0.1200E+02
 -12.850  0.0000E+00  0.1200E+02
 -12.840  0.0000E+00  0.1200E+02
 -12.830  0.0000E+00  0.1200E+02
 -12.820  0.0000E+00  0.1200E+02
 -12.810  0.0000E+00  0.1200E+02
 -12.800  0.0000E+00  0.1200E+02
 -12.790  0.0000E+00  0.1200E+02
 -12.780  0.0000E+00  0.1200E+02
 -12.770  0.0000E+00  0.1200E+02
 -12.760  0.0000E+00  0.1200E+02
 -12.750  0.0000E+00  0.1200E+02
 -12.740  0.0000E+00  0.1200E+02
 -12.730  0.0000E+00  0.1200E+02
 -12.720  0.0000E+00  0.1200E+02
 -12.710  0.0000E+00  0.1200E+02
 -12.700  0.0000E+00  0.1200E+02
 -12.690  0.0000E+00  0.1200E+02
 -12.680  0.0000E+00  0.1200E+02
 -12.670  0.0000E+00  0.1200E+02
 -12.660  0.0000E+00  0.1200E+02
 -12.650  0.0000E+00  0.1200E+02
 -12.640  0.0000E+00  0.1200E+02
 -12.630  0.0000E+00  0.1200E+02
 -12.620  0.0000E+00  0.1200E+02
 -12.610  0.0000E+00  0.1200E+02
 -12.600  0.0000E+00  0.1200E+02
 -12.590  0.0000E+00  0.1200E+02
 -12.580  0.0000E+00  0.1200E+02
 -12.570  0.0000E+00  0.1200E+02
 -12.560  0.0000E+00  0.1200E+02
 -12.550  0.0000E+00  0.1200E+02
 -12.540  0.0000E+00  0.1200E+02
 -12.530  0.0000E+00  0.1200E+02
 -12.520  0.0000E+00  0.1200E+02
 -12.510  0.0000E+00  0.1200E+02
 -12.500  0.0000E+00  0.1200E+02
 -12.490  0.0000E+00  0.1200E+02
 -12.480  0.0000E+00  0.1200E+02
 -12.470  0.0000E+00  0.1200E+02
 -12.460  0.0000E+00  0.1200E+02
 -12.450  0.0000E+00  0.1200E+02
 -12.440  0.0000E+00  0.1200E+02
 -12.430  0.0000E+00  0.1200E+02
 -12.420  0.0000E+00  0.1200E+02
 -12.410  0.0000E+00  0.1200E+02
 -12.400  0.0000E+00  0.1200E+02
 -12.390  0.0000E+00  0.1200E+02
 -12.380  0.0000E+00  0.1200E+02
 -12.370  0.0000E+00  0.1200E+02
 -12.360  0.0000E+00  0.1200E+02
 -12.350  0.0000E+00  0.1200E+02
 -12.340  0.0000E+00  0.1200E+02
 -12.330  0.0000E+00  0.1200E+02
 -12.320  0.0000E+00  0.1200E+02
 -12.310  0.0000E+00  0.1200E+02
 -12.300  0.0000E+00  0.1200E+02
 -12.290  0.0000E+00  0.1200E+02
 -12.280  0.0000E+00  0.1200E+02
 -12.270  0.0000E+00  0.1200E+02
 -12.260  0.0000E+00  0.1200E+02
 -12.250  0.0000E+00  0.1200E+02
 -12.240  0.0000E+00  0.1200E+02
 -12.230  0.0000E+00  0.1200E+02
 -12.220  0.0000E+00  0.1200E+02
 -12.210  0.0000E+00  0.1200E+02
 -12.200  0.0000E+00  0.1200E+02
 -12.190  0.0000E+00  0.1200E+02
 -12.180  0.0000E+00  0.1200E+02
 -12.170  0.0000E+00  0.1200E+02
 -12.160  0.0000E+00  0.1200E+02
 -12.150  0.0000E+00  0.1200E+02
 -12.140  0.0000E+00  0.1200E+02
 -12.130  0.0000E+00  0.1200E+02
 -12.120  0.0000E+00  0.1200E+02
 -12.110  0.0000E+00  0.1200E+02
 -12.100  0.0000E+00  0.1200E+02
 -12.090  0.0000E+00  0.1200E+02
 -12.080  0.0000E+00  0.1200E+02
 -12.070  0.0000E+00  0.1200E+02
 -12.060  0.0000E+00  0.1200E+02
 -12.050  0.0000E+00  0.1200E+02
 -12.040  0.0000E+00  0.1200E+02
 -12.030  0.0000E+00  0.1200E+02
 -12.020  0.0000E+00  0.1200E+02
 -12.010  0.0000E+00  0.1200E+02
 -12.000  0.0000E+00  0.1200E+02
 -11.990  0.0000E+00  0.1200E+02
 -11.980  0.0000E+00  0.1200E+02
 -11.970  0.0000E+00  0.1200E+02
 -11.960  0.0000E+00  0.1200E+02
 -11.950  0.0000E+00  0.1200E+02
 -11.940  0.0000E+00  0.1200E+02
 -11.930  0.0000E+00  0.1200E+02
 -11.920  0.0000E+00  0.1200E+02
 -11.910  0.0000E+00  0.1200E+02
 -11.900  0.0000E+00  0.1200E+02
 -11.890  0.0000E+00  0.1200E+02
 -11.880  0.0000E+00  0.1200E+02
 -11.870  0.0000E+00  0.1200E+02
 -11.860  0.0000E+00  0.1200E+02
 -11.850  0.0000E+00  0.1200E+02
 -11.840  0.0000E+00  0.1200E+02
 -11.830  0.0000E+00  0.1200E+02
 -11.820  0.0000E+00  0.1200E+02
 -11.810  0.0000E+00  0.1200E+02
 -11.800  0.0000E+00  0.1200E+02
 -11.790  0.0000E+00  0.1200E+02
 -11.780  0.0000E+00  0.1200E+02
 -11.770  0.0000E+00  0.1200E+02
 -11.760  0.0000E+00  0.1200E+02
 -11.750  0.0000E+00  0.1200E+02
 -11.740  0.0000E+00  0.1200E+02
 -11.730  0.0000E+00  0.1200E+02
 -11.720  0.0000E+00  0.1200E+02
 -11.710  0.0000E+00  0.1200E+02
 -11.700  0.0000E+00  0.1200E+02
 -11.690  0.0000E+00  0.1200E+02
 -11.680  0.0000E+00  0.1200E+02
 -11.670  0.0000E+00  0.1200E+02
 -11.660  0.0000E+00  0.1200E+02
 -11.650  0.0000E+00  0.1200E+02
 -11.640  0.0000E+00  0.1200E+02
 -11.630  0.0000E+00  0.1200E+02
 -11.620  0.0000E+00  0.1200E+02
 -11.610  0.0000E+00  0.1200E+02
 -11.600  0.0000E+00  0.1200E+02
 -11.590  0.0000E+00  0.1200E+02
 -11.580  0.0000E+00  0.1200E+02
 -11.570  0.0000E+00  0.1200E+02
 -11.560  0.0000E+00  0.1200E+02
 -11.550  0.0000E+00  0.1200E+02
 -11.540  0.0000E+00  0.1200E+02
 -11.530  0.0000E+00  0.1200E+02
 -11.520  0.0000E+00  0.1200E+02
 -11.510  0.0000E+00  0.1200E+02
 -11.500  0.0000E+00  0.1200E+02
 -11.490  0.0000E+00  0.1200E+02
 -11.480  0.0000E+00  0.1200E+02
 -11.470  0.0000E+00  0.1200E+02
 -11.460  0.0000E+00  0.1200E+02
 -11.450  0.0000E+00  0.1200E+02
 -11.440  0.0000E+00  0.1200E+02
 -11.430  0.0000E+00  0.1200E+02
 -11.420  0.0000E+00  0.1200E+02
 -11.410  0.0000E+00  0.1200E+02
 -11.400  0.0000E+00  0.1200E+02
 -11.390  0.0000E+00  0.1200E+02
 -11.380  0.0000E+00  0.1200E+02
 -11.370  0.0000E+00  0.1200E+02
 -11.360  0.0000E+00  0.1200E+02
 -11.350  0.0000E+00  0.1200E+02
 -11.340  0.0000E+00  0.1200E+02
 -11.330  0.0000E+00  0.1200E+02
 -11.320  0.0000E+00  0.1200E+02
 -11.310  0.0000E+00  0.1200E+02
 -11.300  0.0000E+00  0.1200E+02
 -11.290  0.0000E+00  0.1200E+02
 -11.280  0.0000E+00  0.1200E+02
 -11.270  0.0000E+00  0.1200E+02
 -11.260  0.0000E+00  0.1200E+02
 -11.250  0.0000E+00  0.1200E+02
 -11.240  0.0000E+00  0.1200E+02
 -11.230  0.0000E+00  0.1200E+02
 -11.220  0.0000E+00  0.1200E+02
 -11.210  0.0000E+00  0.1200E+02
 -11.200  0.0000E+00  0.1200E+02
 -11.190  0.0000E+00  0.1200E+02
 -11.180  0.0000E+00  0.1200E+02
 -11.170  0.0000E+00  0.1200E+02
 -11.160  0.0000E+00  0.1200E+02
 -11.150  0.0000E+00  0.1200E+02
 -11.140  0.0000E+00  0.1200E+02
 -11.130  0.0000E+00  0.1200E+02
 -11.120  0.0000E+00  0.1200E+02
 -11.110  0.0000E+00  0.1200E+02
 -11.100  0.0000E+00  0.1200E+02
 -11.090  0.0000E+00  0.1200E+02
 -11.080  0.0000E+00  0.1200E+02
 -11.070  0.0000E+00  0.1200E+02
 -11.060  0.0000E+00  0.1200E+02
 -11.050  0.0000E+00  0.1200E+02
 -11.040  0.0000E+00  0.1200E+02
 -11.030  0.0000E+00  0.1200E+02
 -11.020  0.0000E+00  0.1200E+02
 -11.010  0.0000E+00  0.1200E+02
 -11.000  0.0000E+00  0.1200E+02
 -10.990  0.0000E+00  0.1200E+02
 -10.980  0.0000E+00  0.1200E+02
 -10.970  0.0000E+00  0.1200E+02
 -10.960  0.0000E+00  0.1200E+02
 -10.950  0.0000E+00  0.1200E+02
 -10.940  0.0000E+00  0.1200E+02
 -10.930  0.0000E+00  0.1200E+02
 -10.920  0.0000E+00  0.1200E+02
 -10.910  0.0000E+00  0.1200E+02
 -10.900  0.0000E+00  0.1200E+02
 -10.890  0.0000E+00  0.1200E+02
 -10.880  0.0000E+00  0.1200E+02
 -10.870  0.0000E+00  0.1200E+02
 -10.860  0.0000E+00  0.1200E+02
 -10.850  0.0000E+00  0.1200E+02
 -10.840  0.0000E+00  0.1200E+02
 -10.830  0.0000E+00  0.1200E+02
 -10.820  0.0000E+00  0.1200E+02
 -10.810  0.0000E+00  0.1200E+02
 -10.800  0.0000E+00  0.1200E+02
 -10.790  0.0000E+00  0.1200E+02
 -10.780  0.0000E+00  0.1200E+02
 -10.770  0.0000E+00  0.1200E+02
 -10.760  0.0000E+00  0.1200E+02
 -10.750  0.0000E+00  0.1200E+02
 -10.740  0.0000E+00  0.1200E+02
 -10.730  0.0000E+00  0.1200E+02
 -10.720  0.0000E+00  0.1200E+02
 -10.710  0.0000E+00  0.1200E+02
 -10.700  0.0000E+00  0.1200E+02
 -10.690  0.0000E+00  0.1200E+02
 -10.680  0.0000E+00  0.1200E+02
 -10.670  0.0000E+00  0.1200E+02
 -10.660  0.0000E+00  0.1200E+02
 -10.650  0.0000E+00  0.1200E+02
 -10.640  0.0000E+00  0.1200E+02
 -10.630  0.0000E+00  0.1200E+02
 -10.620  0.0000E+00  0.1200E+02
 -10.610  0.0000E+00  0.1200E+02
 -10.600  0.0000E+00  0.1200E+02
 -10.590  0.0000E+00  0.1200E+02
 -10.580  0.0000E+00  0.1200E+02
 -10.570  0.0000E+00  0.1200E+02
 -10.560  0.0000E+00  0.1200E+02
 -10.550  0.0000E+00  0.1200E+02
 -10.540  0.0000E+00  0.1200E+02
 -10.530  0.0000E+00  0.1200E+02
 -10.520  0.0000E+00  0.1200E+02
 -10.510  0.0000E+00  0.1200E+02
 -10.500  0.0000E+00  0.1200E+02
 -10.490  0.0000E+00  0.1200E+02
 -10.480  0.0000E+00  0.1200E+02
 -10.470  0.0000E+00  0.1200E+02
 -10.460  0.0000E+00  0.1200E+02
 -10.450  0.0000E+00  0.1200E+02
 -10.440  0.0000E+00  0.1200E+02
 -10.430  0.0000E+00  0.1200E+02
 -10.420  0.0000E+00  0.1200E+02
 -10.410  0.0000E+00  0.1200E+02
 -10.400  0.0000E+00  0.1200E+02
 -10.390  0.0000E+00  0.1200E+02
 -10.380  0.0000E+00  0.1200E+02
 -10.370  0.0000E+00  0.1200E+02
 -10.360  0.0000E+00  0.1200E+02
 -10.350  0.0000E+00  0.1200E+02
 -10.340  0.0000E+00  0.1200E+02
 -10.330  0.0000E+00  0.1200E+02
 -10.320  0.0000E+00  0.1200E+02
 -10.310  0.0000E+00  0.1200E+02
 -10.300  0.0000E+00  0.1200E+02
 -10.290  0.0000E+00  0.1200E+02
 -10.280  0.0000E+00  0.1200E+02
 -10.270  0.0000E+00  0.1200E+02
 -10.260  0.0000E+00  0.1200E+02
 -10.250  0.0000E+00  0.1200E+02
 -10.240  0.0000E+00  0.1200E+02
 -10.230  0.0000E+00  0.1200E+02
 -10.220  0.0000E+00  0.1200E+02
 -10.210  0.0000E+00  0.1200E+02
 -10.200  0.0000E+00  0.1200E+02
 -10.190  0.0000E+00  0.1200E+02
 -10.180  0.0000E+00  0.1200E+02
 -10.170  0.0000E+00  0.1200E+02
 -10.160  0.0000E+00  0.1200E+02
 -10.150  0.0000E+00  0.1200E+02
 -10.140  0.0000E+00  0.1200E+02
 -10.130  0.0000E+00  0.1200E+02
 -10.120  0.0000E+00  0.1200E+02
 -10.110  0.0000E+00  0.1200E+02
 -10.100  0.0000E+00  0.1200E+02
 -10.090  0.0000E+00  0.1200E+02
 -10.080  0.0000E+00  0.1200E+02
 -10.070  0.0000E+00  0.1200E+02
 -10.060  0.0000E+00  0.1200E+02
 -10.050  0.0000E+00  0.1200E+02
 -10.040  0.0000E+00  0.1200E+02
 -10.030  0.0000E+00  0.1200E+02
 -10.020  0.0000E+00  0.1200E+02
 -10.010  0.0000E+00  0.1200E+02
 -10.000  0.0000E+00  0.1200E+02
  -9.990  0.0000E+00  0.1200E+02
  -9.980  0.0000E+00  0.1200E+02
  -9.970  0.0000E+00  0.1200E+02
  -9.960  0.0000E+00  0.1200E+02
  -9.950  0.0000E+00  0.1200E+02
  -9.940  0.0000E+00  0.1200E+02
  -9.930  0.0000E+00  0.1200E+02
  -9.920  0.0000E+00  0.1200E+02
  -9.910  0.0000E+00  0.1200E+02
  -9.900  0.0000E+00  0.1200E+02
  -9.890  0.0000E+00  0.1200E+02
  -9.880  0.0000E+00  0.1200E+02
  -9.870  0.0000E+00  0.1200E+02
  -9.860  0.0000E+00  0.1200E+02
  -9.850  0.0000E+00  0.1200E+02
  -9.840  0.0000E+00  0.1200E+02
  -9.830  0.0000E+00  0.1200E+02
  -9.820  0.0000E+00  0.1200E+02
  -9.810  0.0000E+00  0.1200E+02
  -9.800  0.0000E+00  0.1200E+02
  -9.790  0.0000E+00  0.1200E+02
  -9.780  0.0000E+00  0.1200E+02
  -9.770  0.0000E+00  0.1200E+02
  -9.760  0.0000E+00  0.1200E+02
  -9.750  0.0000E+00  0.1200E+02
  -9.740  0.0000E+00  0.1200E+02
  -9.730  0.0000E+00  0.1200E+02
  -9.720  0.0000E+00  0.1200E+02
  -9.710  0.0000E+00  0.1200E+02
  -9.700  0.0000E+00  0.1200E+02
  -9.690  0.0000E+00  0.1200E+02
  -9.680  0.0000E+00  0.1200E+02
  -9.670  0.0000E+00  0.1200E+02
  -9.660  0.0000E+00  0.1200E+02
  -9.650  0.0000E+00  0.1200E+02
  -9.640  0.0000E+00  0.1200E+02
  -9.630  0.0000E+00  0.1200E+02
  -9.620  0.0000E+00  0.1200E+02
  -9.610  0.0000E+00  0.1200E+02
  -9.600  0.0000E+00  0.1200E+02
  -9.590  0.0000E+00  0.1200E+02
  -9.580  0.0000E+00  0.1200E+02
  -9.570  0.0000E+00  0.1200E+02
  -9.560  0.0000E+00  0.1200E+02
  -9.550  0.0000E+00  0.1200E+02
  -9.540  0.0000E+00  0.1200E+02
  -9.530  0.0000E+00  0.1200E+02
  -9.520  0.0000E+00  0.1200E+02
  -9.510  0.0000E+00  0.1200E+02
  -9.500  0.0000E+00  0.1200E+02
  -9.490  0.0000E+00  0.1200E+02
  -9.480  0.0000E+00  0.1200E+02
  -9.470  0.0000E+00  0.1200E+02
  -9.460  0.0000E+00  0.1200E+02
  -9.450  0.0000E+00  0.1200E+02
  -9.440  0.0000E+00  0.1200E+02
  -9.430  0.0000E+00  0.1200E+02
  -9.420  0.0000E+00  0.1200E+02
  -9.410  0.0000E+00  0.1200E+02
  -9.400  0.0000E+00  0.1200E+02
  -9.390  0.0000E+00  0.1200E+02
  -9.380  0.0000E+00  0.1200E+02
  -9.370  0.0000E+00  0.1200E+02
  -9.360  0.0000E+00  0.1200E+02
  -9.350  0.0000E+00  0.1200E+02
  -9.340  0.0000E+00  0.1200E+02
  -9.330  0.0000E+00  0.1200E+02
  -9.320  0.0000E+00  0.1200E+02
  -9.310  0.0000E+00  0.1200E+02
  -9.300  0.0000E+00  0.1200E+02
  -9.290  0.0000E+00  0.1200E+02
  -9.280  0.0000E+00  0.1200E+02
  -9.270  0.0000E+00  0.1200E+02
  -9.260  0.0000E+00  0.1200E+02
  -9.250  0.0000E+00  0.1200E+02
  -9.240  0.0000E+00  0.1200E+02
  -9.230  0.0000E+00  0.1200E+02
  -9.220  0.0000E+00  0.1200E+02
  -9.210  0.0000E+00  0.1200E+02
  -9.200  0.0000E+00  0.1200E+02
  -9.190  0.0000E+00  0.1200E+02
  -9.180  0.0000E+00  0.1200E+02
  -9.170  0.0000E+00  0.1200E+02
  -9.160  0.0000E+00  0.1200E+02
  -9.150  0.0000E+00  0.1200E+02
  -9.140  0.0000E+00  0.1200E+02
  -9.130  0.0000E+00  0.1200E+02
  -9.120  0.0000E+00  0.1200E+02
  -9.110  0.0000E+00  0.1200E+02
  -9.100  0.0000E+00  0.1200E+02
  -9.090  0.0000E+00  0.1200E+02
  -9.080  0.0000E+00  0.1200E+02
  -9.070  0.0000E+00  0.1200E+02
  -9.060  0.0000E+00  0.1200E+02
  -9.050  0.0000E+00  0.1200E+02
  -9.040  0.0000E+00  0.1200E+02
  -9.030  0.0000E+00  0.1200E+02
  -9.020  0.0000E+00  0.1200E+02
  -9.010  0.0000E+00  0.1200E+02
  -9.000  0.0000E+00  0.1200E+02
  -8.990  0.3197E+00  0.1200E+02
  -8.980  0.8031E+00  0.1201E+02
  -8.970  0.1100E+01  0.1202E+02
  -8.960  0.1345E+01  0.1203E+02
  -8.950  0.1567E+01  0.1204E+02
  -8.940  0.1773E+01  0.1206E+02
  -8.930  0.1956E+01  0.1208E+02
  -8.920  0.2140E+01  0.1210E+02
  -8.910  0.2323E+01  0.1212E+02
  -8.900  0.2499E+01  0.1215E+02
  -8.890  0.2682E+01  0.1217E+02
  -8.880  0.2858E+01  0.1220E+02
  -8.870  0.3046E+01  0.1223E+02
  -8.860  0.3234E+01  0.1226E+02
  -8.850  0.3433E+01  0.1229E+02
  -8.840  0.3642E+01  0.1233E+02
  -8.830  0.3867E+01  0.1237E+02
  -8.820  0.4112E+01  0.1241E+02
  -8.810  0.4389E+01  0.1245E+02
  -8.800  0.4709E+01  0.1249E+02
  -8.790  0.5126E+01  0.1254E+02
  -8.780  0.5775E+01  0.1260E+02
  -8.770  0.6470E+01  0.1266E+02
  -8.760  0.6342E+01  0.1272E+02
  -8.750  0.6226E+01  0.1279E+02
  -8.740  0.6096E+01  0.1285E+02
  -8.730  0.5983E+01  0.1291E+02
  -8.720  0.5856E+01  0.1297E+02
  -8.710  0.5741E+01  0.1303E+02
  -8.700  0.5624E+01  0.1308E+02
  -8.690  0.5500E+01  0.1314E+02
  -8.680  0.5380E+01  0.1319E+02
  -8.670  0.5255E+01  0.1325E+02
  -8.660  0.5132E+01  0.1330E+02
  -8.650  0.5003E+01  0.1335E+02
  -8.640  0.4875E+01  0.1340E+02
  -8.630  0.4739E+01  0.1345E+02
  -8.620  0.4604E+01  0.1349E+02
  -8.610  0.4459E+01  0.1354E+02
  -8.600  0.4314E+01  0.1358E+02
  -8.590  0.4167E+01  0.1362E+02
  -8.580  0.4009E+01  0.1367E+02
  -8.570  0.3844E+01  0.1370E+02
  -8.560  0.3674E+01  0.1374E+02
  -8.550  0.3492E+01  0.1378E+02
  -8.540  0.3293E+01  0.1381E+02
  -8.530  0.3089E+01  0.1384E+02
  -8.520  0.2863E+01  0.1387E+02
  -8.510  0.2651E+01  0.1390E+02
  -8.500  0.2175E+01  0.1393E+02
  -8.490  0.1801E+01  0.1395E+02
  -8.480  0.1502E+01  0.1396E+02
  -8.470  0.1233E+01  0.1398E+02
  -8.460  0.9698E+00  0.1399E+02
  -8.450  0.6791E+00  0.1399E+02
  -8.440  0.4296E+02  0.1441E+02
  -8.430  0.2423E+02  0.1473E+02
  -8.420  0.1925E+02  0.1495E+02
  -8.410  0.1732E+02  0.1513E+02
  -8.400  0.1563E+02  0.1529E+02
  -8.390  0.1465E+02  0.1544E+02
  -8.380  0.1396E+02  0.1559E+02
  -8.370  0.1336E+02  0.1572E+02
  -8.360  0.1302E+02  0.1585E+02
  -8.350  0.1268E+02  0.1598E+02
  -8.340  0.1249E+02  0.1611E+02
  -8.330  0.1220E+02  0.1623E+02
  -8.320  0.1214E+02  0.1635E+02
  -8.310  0.1202E+02  0.1647E+02
  -8.300  0.1200E+02  0.1659E+02
  -8.290  0.1198E+02  0.1671E+02
  -8.280  0.1200E+02  0.1683E+02
  -8.270  0.1198E+02  0.1695E+02
  -8.260  0.1208E+02  0.1707E+02
  -8.250  0.1215E+02  0.1720E+02
  -8.240  0.1228E+02  0.1732E+02
  -8.230  0.1237E+02  0.1744E+02
  -8.220  0.1266E+02  0.1757E+02
  -8.210  0.1291E+02  0.1769E+02
  -8.200  0.1309E+02  0.1782E+02
  -8.190  0.1376E+02  0.1796E+02
  -8.180  0.0000E+00  0.1800E+02
  -8.170  0.0000E+00  0.1800E+02
  -8.160  0.0000E+00  0.1800E+02
  -8.150  0.0000E+00  0.1800E+02
  -8.140  0.0000E+00  0.1800E+02
  -8.130  0.0000E+00  0.1800E+02
  -8.120  0.0000E+00  0.1800E+02
  -8.110  0.0000E+00  0.1800E+02
  -8.100  0.0000E+00  0.1800E+02
  -8.090  0.0000E+00  0.1800E+02
  -8.080  0.0000E+00  0.1800E+02
  -8.070  0.0000E+00  0.1800E+02
  -8.060  0.0000E+00  0.1800E+02
  -8.050  0.0000E+00  0.1800E+02
  -8.040  0.0000E+00  0.1800E+02
  -8.030  0.0000E+00  0.1800E+02
  -8.020  0.0000E+00  0.1800E+02
  -8.010  0.0000E+00  0.1800E+02
  -8.000  0.0000E+00  0.1800E+02
  -7.990  0.0000E+00  0.1800E+02
  -7.980  0.0000E+00  0.1800E+02
  -7.970  0.0000E+00  0.1800E+02
  -7.960  0.0000E+00  0.1800E+02
  -7.950  0.0000E+00  0.1800E+02
  -7.940  0.0000E+00  0.1800E+02
  -7.930  0.0000E+00  0.1800E+02
  -7.920  0.0000E+00  0.1800E+02
  -7.910  0.0000E+00  0.1800E+02
  -7.900  0.0000E+00  0.1800E+02
  -7.890  0.0000E+00  0.1800E+02
  -7.880  0.0000E+00  0.1800E+02
  -7.870  0.0000E+00  0.1800E+02
  -7.860  0.0000E+00  0.1800E+02
  -7.850  0.0000E+00  0.1800E+02
  -7.840  0.0000E+00  0.1800E+02
  -7.830  0.0000E+00  0.1800E+02
  -7.820  0.0000E+00  0.1800E+02
  -7.810  0.0000E+00  0.1800E+02
  -7.800  0.0000E+00  0.1800E+02
  -7.790  0.0000E+00  0.1800E+02
  -7.780  0.0000E+00  0.1800E+02
  -7.770  0.0000E+00  0.1800E+02
  -7.760  0.0000E+00  0.1800E+02
  -7.750  0.0000E+00  0.1800E+02
  -7.740  0.0000E+00  0.1800E+02
  -7.730  0.0000E+00  0.1800E+02
  -7.720  0.0000E+00  0.1800E+02
  -7.710  0.0000E+00  0.1800E+02
  -7.700  0.0000E+00  0.1800E+02
  -7.690  0.0000E+00  0.1800E+02
  -7.680  0.0000E+00  0.1800E+02
  -7.670  0.0000E+00  0.1800E+02
  -7.660  0.0000E+00  0.1800E+02
  -7.650  0.0000E+00  0.1800E+02
  -7.640  0.0000E+00  0.1800E+02
  -7.630  0.0000E+00  0.1800E+02
  -7.620  0.0000E+00  0.1800E+02
  -7.610  0.0000E+00  0.1800E+02
  -7.600  0.0000E+00  0.1800E+02
  -7.590  0.0000E+00  0.1800E+02
  -7.580  0.0000E+00  0.1800E+02
  -7.570  0.0000E+00  0.1800E+02
  -7.560  0.0000E+00  0.1800E+02
  -7.550  0.0000E+00  0.1800E+02
  -7.540  0.0000E+00  0.1800E+02
  -7.530  0.0000E+00  0.1800E+02
  -7.520  0.0000E+00  0.1800E+02
  -7.510  0.0000E+00  0.1800E+02
  -7.500  0.0000E+00  0.1800E+02
  -7.490  0.0000E+00  0.1800E+02
  -7.480  0.0000E+00  0.1800E+02
  -7.470  0.0000E+00  0.1800E+02
  -7.460  0.0000E+00  0.1800E+02
  -7.450  0.0000E+00  0.1800E+02
  -7.440  0.0000E+00  0.1800E+02
  -7.430  0.0000E+00  0.1800E+02
  -7.420  0.0000E+00  0.1800E+02
  -7.410  0.0000E+00  0.1800E+02
  -7.400  0.0000E+00  0.1800E+02
  -7.390  0.0000E+00  0.1800E+02
  -7.380  0.0000E+00  0.1800E+02
  -7.370  0.0000E+00  0.1800E+02
  -7.360  0.0000E+00  0.1800E+02
  -7.350  0.0000E+00  0.1800E+02
  -7.340  0.0000E+00  0.1800E+02
  -7.330  0.0000E+00  0.1800E+02
  -7.320  0.0000E+00  0.1800E+02
  -7.310  0.0000E+00  0.1800E+02
  -7.300  0.0000E+00  0.1800E+02
  -7.290  0.0000E+00  0.1800E+02
  -7.280  0.0000E+00  0.1800E+02
  -7.270  0.0000E+00  0.1800E+02
  -7.260  0.0000E+00  0.1800E+02
  -7.250  0.0000E+00  0.1800E+02
  -7.240  0.0000E+00  0.1800E+02
  -7.230  0.0000E+00  0.1800E+02
  -7.220  0.0000E+00  0.1800E+02
  -7.210  0.0000E+00  0.1800E+02
  -7.200  0.0000E+00  0.1800E+02
  -7.190  0.0000E+00  0.1800E+02
  -7.180  0.0000E+00  0.1800E+02
  -7.170  0.0000E+00  0.1800E+02
  -7.160  0.0000E+00  0.1800E+02
  -7.150  0.0000E+00  0.1800E+02
  -7.140  0.0000E+00  0.1800E+02
  -7.130  0.0000E+00  0.1800E+02
  -7.120  0.0000E+00  0.1800E+02
  -7.110  0.0000E+00  0.1800E+02
  -7.100  0.0000E+00  0.1800E+02
  -7.090  0.0000E+00  0.1800E+02
  -7.080  0.0000E+00  0.1800E+02
  -7.070  0.0000E+00  0.1800E+02
  -7.060  0.0000E+00  0.1800E+02
  -7.050  0.0000E+00  0.1800E+02
  -7.040  0.0000E+00  0.1800E+02
  -7.030  0.0000E+00  0.1800E+02
  -7.020  0.0000E+00  0.1800E+02
  -7.010  0.0000E+00  0.1800E+02
  -7.000  0.0000E+00  0.1800E+02
  -6.990  0.0000E+00  0.1800E+02
  -6.980  0.0000E+00  0.1800E+02
  -6.970  0.0000E+00  0.1800E+02
  -6.960  0.0000E+00  0.1800E+02
  -6.950  0.0000E+00  0.1800E+02
  -6.940  0.0000E+00  0.1800E+02
  -6.930  0.0000E+00  0.1800E+02
  -6.920  0.0000E+00  0.1800E+02
  -6.910  0.0000E+00  0.1800E+02
  -6.900  0.0000E+00  0.1800E+02
  -6.890  0.0000E+00  0.1800E+02
  -6.880  0.0000E+00  0.1800E+02
  -6.870  0.0000E+00  0.1800E+02
  -6.860  0.0000E+00  0.1800E+02
  -6.850  0.0000E+00  0.1800E+02
  -6.840  0.0000E+00  0.1800E+02
  -6.830  0.0000E+00  0.1800E+02
  -6.820  0.0000E+00  0.1800E+02
  -6.810  0.0000E+00  0.1800E+02
  -6.800  0.0000E+00  0.1800E+02
  -6.790  0.0000E+00  0.1800E+02
  -6.780  0.0000E+00  0.1800E+02
  -6.770  0.0000E+00  0.1800E+02
  -6.760  0.0000E+00  0.1800E+02
  -6.750  0.0000E+00  0.1800E+02
  -6.740  0.0000E+00  0.1800E+02
  -6.730  0.0000E+00  0.1800E+02
  -6.720  0.0000E+00  0.1800E+02
  -6.710  0.0000E+00  0.1800E+02
  -6.700  0.0000E+00  0.1800E+02
  -6.690  0.0000E+00  0.1800E+02
  -6.680  0.0000E+00  0.1800E+02
  -6.670  0.0000E+00  0.1800E+02
  -6.660  0.0000E+00  0.1800E+02
  -6.650  0.0000E+00  0.1800E+02
  -6.640  0.0000E+00  0.1800E+02
  -6.630  0.0000E+00  0.1800E+02
  -6.620  0.0000E+00  0.1800E+02
  -6.610  0.0000E+00  0.1800E+02
  -6.600  0.0000E+00  0.1800E+02
  -6.590  0.0000E+00  0.1800E+02
  -6.580  0.0000E+00  0.1800E+02
  -6.570  0.0000E+00  0.1800E+02
  -6.560  0.0000E+00  0.1800E+02
  -6.550  0.0000E+00  0.1800E+02
  -6.540  0.0000E+00  0.1800E+02
  -6.530  0.0000E+00  0.1800E+02
  -6.520  0.0000E+00  0.1800E+02
  -6.510  0.0000E+00  0.1800E+02
  -6.500  0.0000E+00  0.1800E+02
  -6.490  0.0000E+00  0.1800E+02
  -6.480  0.0000E+00  0.1800E+02
  -6.470  0.0000E+00  0.1800E+02
  -6.460  0.0000E+00  0.1800E+02
  -6.450  0.0000E+00  0.1800E+02
  -6.440  0.0000E+00  0.1800E+02
  -6.430  0.0000E+00  0.1800E+02
  -6.420  0.0000E+00  0.1800E+02
  -6.410  0.0000E+00  0.1800E+02
  -6.400  0.0000E+00  0.1800E+02
  -6.390  0.0000E+00  0.1800E+02
  -6.380  0.0000E+00  0.1800E+02
  -6.370  0.0000E+00  0.1800E+02
  -6.360  0.0000E+00  0.1800E+02
  -6.350  0.0000E+00  0.1800E+02
  -6.340  0.0000E+00  0.1800E+02
  -6.330  0.0000E+00  0.1800E+02
  -6.320  0.0000E+00  0.1800E+02
  -6.310  0.0000E+00  0.1800E+02
  -6.300  0.0000E+00  0.1800E+02
  -6.290  0.0000E+00  0.1800E+02
  -6.280  0.0000E+00  0.1800E+02
  -6.270  0.0000E+00  0.1800E+02
  -6.260  0.0000E+00  0.1800E+02
  -6.250  0.0000E+00  0.1800E+02
  -6.240  0.0000E+00  0.1800E+02
  -6.230  0.0000E+00  0.1800E+02
  -6.220  0.0000E+00  0.1800E+02
  -6.210  0.0000E+00  0.1800E+02
  -6.200  0.0000E+00  0.1800E+02
  -6.190  0.0000E+00  0.1800E+02
  -6.180  0.0000E+00  0.1800E+02
  -6.170  0.0000E+00  0.1800E+02
  -6.160  0.0000E+00  0.1800E+02
  -6.150  0.0000E+00  0.1800E+02
  -6.140  0.0000E+00  0.1800E+02
  -6.130  0.0000E+00  0.1800E+02
  -6.120  0.0000E+00  0.1800E+02
  -6.110  0.0000E+00  0.1800E+02
  -6.100  0.0000E+00  0.1800E+02
  -6.090  0.0000E+00  0.1800E+02
  -6.080  0.0000E+00  0.1800E+02
  -6.070  0.0000E+00  0.1800E+02
  -6.060  0.0000E+00  0.1800E+02
  -6.050  0.0000E+00  0.1800E+02
  -6.040  0.0000E+00  0.1800E+02
  -6.030  0.0000E+00  0.1800E+02
  -6.020  0.0000E+00  0.1800E+02
  -6.010  0.0000E+00  0.1800E+02
  -6.000  0.0000E+00  0.1800E+02
  -5.990  0.0000E+00  0.1800E+02
  -5.980  0.0000E+00  0.1800E+02
  -5.970  0.0000E+00  0.1800E+02
  -5.960  0.0000E+00  0.1800E+02
  -5.950  0.0000E+00  0.1800E+02
  -5.940  0.0000E+00  0.1800E+02
  -5.930  0.0000E+00  0.1800E+02
  -5.920  0.0000E+00  0.1800E+02
  -5.910  0.0000E+00  0.1800E+02
  -5.900  0.0000E+00  0.1800E+02
  -5.890  0.0000E+00  0.1800E+02
  -5.880  0.0000E+00  0.1800E+02
  -5.870  0.0000E+00  0.1800E+02
  -5.860  0.0000E+00  0.1800E+02
  -5.850  0.0000E+00  0.1800E+02
  -5.840  0.0000E+00  0.1800E+02
  -5.830  0.0000E+00  0.1800E+02
  -5.820  0.0000E+00  0.1800E+02
  -5.810  0.0000E+00  0.1800E+02
  -5.800  0.0000E+00  0.1800E+02
  -5.790  0.0000E+00  0.1800E+02
  -5.780  0.0000E+00  0.1800E+02
  -5.770  0.0000E+00  0.1800E+02
  -5.760  0.0000E+00  0.1800E+02
  -5.750  0.0000E+00  0.1800E+02
  -5.740  0.0000E+00  0.1800E+02
  -5.730  0.0000E+00  0.1800E+02
  -5.720  0.0000E+00  0.1800E+02
  -5.710  0.0000E+00  0.1800E+02
  -5.700  0.0000E+00  0.1800E+02
  -5.690  0.0000E+00  0.1800E+02
  -5.680  0.0000E+00  0.1800E+02
  -5.670  0.0000E+00  0.1800E+02
  -5.660  0.0000E+00  0.1800E+02
  -5.650  0.0000E+00  0.1800E+02
  -5.640  0.0000E+00  0.1800E+02
  -5.630  0.0000E+00  0.1800E+02
  -5.620  0.0000E+00  0.1800E+02
  -5.610  0.0000E+00  0.1800E+02
  -5.600  0.0000E+00  0.1800E+02
  -5.590  0.0000E+00  0.1800E+02
  -5.580  0.0000E+00  0.1800E+02
  -5.570  0.0000E+00  0.1800E+02
  -5.560  0.0000E+00  0.1800E+02
  -5.550  0.0000E+00  0.1800E+02
  -5.540  0.0000E+00  0.1800E+02
  -5.530  0.0000E+00  0.1800E+02
  -5.520  0.0000E+00  0.1800E+02
  -5.510  0.0000E+00  0.1800E+02
  -5.500  0.0000E+00  0.1800E+02
  -5.490  0.0000E+00  0.1800E+02
  -5.480  0.0000E+00  0.1800E+02
  -5.470  0.0000E+00  0.1800E+02
  -5.460  0.0000E+00  0.1800E+02
  -5.450  0.0000E+00  0.1800E+02
  -5.440  0.0000E+00  0.1800E+02
  -5.430  0.0000E+00  0.1800E+02
  -5.420  0.0000E+00  0.1800E+02
  -5.410  0.0000E+00  0.1800E+02
  -5.400  0.0000E+00  0.1800E+02
  -5.390  0.0000E+00  0.1800E+02
  -5.380  0.0000E+00  0.1800E+02
  -5.370  0.0000E+00  0.1800E+02
  -5.360  0.0000E+00  0.1800E+02
  -5.350  0.0000E+00  0.1800E+02
  -5.340  0.0000E+00  0.1800E+02
  -5.330  0.0000E+00  0.1800E+02
  -5.320  0.0000E+00  0.1800E+02
  -5.310  0.0000E+00  0.1800E+02
  -5.300  0.0000E+00  0.1800E+02
  -5.290  0.0000E+00  0.1800E+02
  -5.280  0.0000E+00  0.1800E+02
  -5.270  0.0000E+00  0.1800E+02
  -5.260  0.0000E+00  0.1800E+02
  -5.250  0.0000E+00  0.1800E+02
  -5.240  0.0000E+00  0.1800E+02
  -5.230  0.0000E+00  0.1800E+02
  -5.220  0.0000E+00  0.1800E+02
  -5.210  0.0000E+00  0.1800E+02
  -5.200  0.0000E+00  0.1800E+02
  -5.190  0.0000E+00  0.1800E+02
  -5.180  0.0000E+00  0.1800E+02
  -5.170  0.0000E+00  0.1800E+02
  -5.160  0.0000E+00  0.1800E+02
  -5.150  0.0000E+00  0.1800E+02
  -5.140  0.0000E+00  0.1800E+02
  -5.130  0.0000E+00  0.1800E+02
  -5.120  0.0000E+00  0.1800E+02
  -5.110  0.0000E+00  0.1800E+02
  -5.100  0.0000E+00  0.1800E+02
  -5.090  0.0000E+00  0.1800E+02
  -5.080  0.0000E+00  0.1800E+02
  -5.070  0.0000E+00  0.1800E+02
  -5.060  0.0000E+00  0.1800E+02
  -5.050  0.0000E+00  0.1800E+02
  -5.040  0.0000E+00  0.1800E+02
  -5.030  0.0000E+00  0.1800E+02
  -5.020  0.0000E+00  0.1800E+02
  -5.010  0.0000E+00  0.1800E+02
  -5.000  0.0000E+00  0.1800E+02
  -4.990  0.0000E+00  0.1800E+02
  -4.980  0.0000E+00  0.1800E+02
  -4.970  0.0000E+00  0.1800E+02
  -4.960  0.0000E+00  0.1800E+02
  -4.950  0.0000E+00  0.1800E+02
  -4.940  0.0000E+00  0.1800E+02
  -4.930  0.0000E+00  0.1800E+02
  -4.920  0.0000E+00  0.1800E+02
  -4.910  0.0000E+00  0.1800E+02
  -4.900  0.0000E+00  0.1800E+02
  -4.890  0.0000E+00  0.1800E+02
  -4.880  0.0000E+00  0.1800E+02
  -4.870  0.0000E+00  0.1800E+02
  -4.860  0.0000E+00  0.1800E+02
  -4.850  0.0000E+00  0.1800E+02
  -4.840  0.0000E+00  0.1800E+02
  -4.830  0.0000E+00  0.1800E+02
  -4.820  0.0000E+00  0.1800E+02
  -4.810  0.0000E+00  0.1800E+02
  -4.800  0.0000E+00  0.1800E+02
  -4.790  0.0000E+00  0.1800E+02
  -4.780  0.0000E+00  0.1800E+02
  -4.770  0.0000E+00  0.1800E+02
  -4.760  0.0000E+00  0.1800E+02
  -4.750  0.0000E+00  0.1800E+02
  -4.740  0.0000E+00  0.1800E+02
  -4.730  0.0000E+00  0.1800E+02
  -4.720  0.0000E+00  0.1800E+02
  -4.710  0.0000E+00  0.1800E+02
  -4.700  0.0000E+00  0.1800E+02
  -4.690  0.0000E+00  0.1800E+02
  -4.680  0.0000E+00  0.1800E+02
  -4.670  0.0000E+00  0.1800E+02
  -4.660  0.0000E+00  0.1800E+02
  -4.650  0.0000E+00  0.1800E+02
  -4.640  0.0000E+00  0.1800E+02
  -4.630  0.0000E+00  0.1800E+02
  -4.620  0.0000E+00  0.1800E+02
  -4.610  0.0000E+00  0.1800E+02
  -4.600  0.0000E+00  0.1800E+02
  -4.590  0.0000E+00  0.1800E+02
  -4.580  0.0000E+00  0.1800E+02
  -4.570  0.3444E+02  0.1818E+02
  -4.560  0.7975E+02  0.1872E+02
  -4.550  0.3425E+03  0.2076E+02
  -4.540  0.2427E+03  0.2282E+02
  -4.530  0.0000E+00  0.2400E+02
  -4.520  0.0000E+00  0.2400E+02
  -4.510  0.0000E+00  0.2400E+02
  -4.500  0.0000E+00  0.2400E+02
  -4.490  0.0000E+00  0.2400E+02
  -4.480  0.0000E+00  0.2400E+02
  -4.470  0.0000E+00  0.2400E+02
  -4.460  0.0000E+00  0.2400E+02
  -4.450  0.0000E+00  0.2400E+02
  -4.440  0.0000E+00  0.2400E+02
  -4.430  0.0000E+00  0.2400E+02
  -4.420  0.0000E+00  0.2400E+02
  -4.410  0.0000E+00  0.2400E+02
  -4.400  0.0000E+00  0.2400E+02
  -4.390  0.0000E+00  0.2400E+02
  -4.380  0.0000E+00  0.2400E+02
  -4.370  0.0000E+00  0.2400E+02
  -4.360  0.0000E+00  0.2400E+02
  -4.350  0.0000E+00  0.2400E+02
  -4.340  0.0000E+00  0.2400E+02
  -4.330  0.0000E+00  0.2400E+02
  -4.320  0.0000E+00  0.2400E+02
  -4.310  0.0000E+00  0.2400E+02
  -4.300  0.0000E+00  0.2400E+02
  -4.290  0.0000E+00  0.2400E+02
  -4.280  0.0000E+00  0.2400E+02
  -4.270  0.0000E+00  0.2400E+02
  -4.260  0.0000E+00  0.2400E+02
  -4.250  0.0000E+00  0.2400E+02
  -4.240  0.0000E+00  0.2400E+02
  -4.230  0.8488E-04  0.2400E+02
  -4.220  0.7837E-01  0.2400E+02
  -4.210  0.1263E+00  0.2400E+02
  -4.200  0.1512E+00  0.2400E+02
  -4.190  0.1822E+00  0.2400E+02
  -4.180  0.2026E+00  0.2401E+02
  -4.170  0.2239E+00  0.2401E+02
  -4.160  0.2469E+00  0.2401E+02
  -4.150  0.2643E+00  0.2401E+02
  -4.140  0.2807E+00  0.2402E+02
  -4.130  0.2992E+00  0.2402E+02
  -4.120  0.3182E+00  0.2402E+02
  -4.110  0.3320E+00  0.2403E+02
  -4.100  0.3469E+00  0.2403E+02
  -4.090  0.3635E+00  0.2403E+02
  -4.080  0.3792E+00  0.2404E+02
  -4.070  0.3938E+00  0.2404E+02
  -4.060  0.4080E+00  0.2404E+02
  -4.050  0.4219E+00  0.2405E+02
  -4.040  0.4365E+00  0.2405E+02
  -4.030  0.4515E+00  0.2406E+02
  -4.020  0.4660E+00  0.2406E+02
  -4.010  0.4792E+00  0.2407E+02
  -4.000  0.4923E+00  0.2407E+02
  -3.990  0.5064E+00  0.2408E+02
  -3.980  0.5208E+00  0.2408E+02
  -3.970  0.5356E+00  0.2409E+02
  -3.960  0.5487E+00  0.2409E+02
  -3.950  0.5616E+00  0.2410E+02
  -3.940  0.5754E+00  0.2410E+02
  -3.930  0.5898E+00  0.2411E+02
  -3.920  0.6039E+00  0.2411E+02
  -3.910  0.6182E+00  0.2412E+02
  -3.900  0.6318E+00  0.2413E+02
  -3.890  0.6456E+00  0.2413E+02
  -3.880  0.6598E+00  0.2414E+02
  -3.870  0.6742E+00  0.2415E+02
  -3.860  0.6882E+00  0.2415E+02
  -3.850  0.7035E+00  0.2416E+02
  -3.840  0.7184E+00  0.2417E+02
  -3.830  0.7330E+00  0.2417E+02
  -3.820  0.7475E+00  0.2418E+02
  -3.810  0.7628E+00  0.2419E+02
  -3.800  0.7778E+00  0.2420E+02
  -3.790  0.7939E+00  0.2421E+02
  -3.780  0.8106E+00  0.2421E+02
  -3.770  0.8261E+00  0.2422E+02
  -3.760  0.8420E+00  0.2423E+02
  -3.750  0.8588E+00  0.2424E+02
  -3.740  0.8758E+00  0.2425E+02
  -3.730  0.8931E+00  0.2426E+02
  -3.720  0.9116E+00  0.2427E+02
  -3.710  0.9292E+00  0.2427E+02
  -3.700  0.9479E+00  0.2428E+02
  -3.690  0.9665E+00  0.2429E+02
  -3.680  0.9872E+00  0.2430E+02
  -3.670  0.1006E+01  0.2431E+02
  -3.660  0.1028E+01  0.2432E+02
  -3.650  0.1049E+01  0.2433E+02
  -3.640  0.1071E+01  0.2434E+02
  -3.630  0.1094E+01  0.2435E+02
  -3.620  0.1120E+01  0.2437E+02
  -3.610  0.1144E+01  0.2438E+02
  -3.600  0.1171E+01  0.2439E+02
  -3.590  0.1200E+01  0.2440E+02
  -3.580  0.1228E+01  0.2441E+02
  -3.570  0.1261E+01  0.2443E+02
  -3.560  0.1294E+01  0.2444E+02
  -3.550  0.1331E+01  0.2445E+02
  -3.540  0.1376E+01  0.2446E+02
  -3.530  0.1420E+01  0.2448E+02
  -3.520  0.1478E+01  0.2449E+02
  -3.510  0.1547E+01  0.2451E+02
  -3.500  0.1639E+01  0.2452E+02
  -3.490  0.1804E+01  0.2454E+02
  -3.480  0.1801E+01  0.2456E+02
  -3.470  0.1789E+01  0.2458E+02
  -3.460  0.1784E+01  0.2460E+02
  -3.450  0.1771E+01  0.2461E+02
  -3.440  0.1764E+01  0.2463E+02
  -3.430  0.1758E+01  0.2465E+02
  -3.420  0.1745E+01  0.2467E+02
  -3.410  0.1738E+01  0.2468E+02
  -3.400  0.1730E+01  0.2470E+02
  -3.390  0.1722E+01  0.2472E+02
  -3.380  0.1713E+01  0.2474E+02
  -3.370  0.1706E+01  0.2475E+02
  -3.360  0.1696E+01  0.2477E+02
  -3.350  0.1689E+01  0.2479E+02
  -3.340  0.1680E+01  0.2480E+02
  -3.330  0.1671E+01  0.2482E+02
  -3.320  0.1665E+01  0.2484E+02
  -3.310  0.1656E+01  0.2485E+02
  -3.300  0.1648E+01  0.2487E+02
  -3.290  0.1638E+01  0.2489E+02
  -3.280  0.1630E+01  0.2490E+02
  -3.270  0.1622E+01  0.2492E+02
  -3.260  0.1615E+01  0.2493E+02
  -3.250  0.1606E+01  0.2495E+02
  -3.240  0.1598E+01  0.2497E+02
  -3.230  0.1589E+01  0.2498E+02
  -3.220  0.1581E+01  0.2500E+02
  -3.210  0.1572E+01  0.2501E+02
  -3.200  0.1565E+01  0.2503E+02
  -3.190  0.1557E+01  0.2505E+02
  -3.180  0.1548E+01  0.2506E+02
  -3.170  0.1540E+01  0.2508E+02
  -3.160  0.1532E+01  0.2509E+02
  -3.150  0.1523E+01  0.2511E+02
  -3.140  0.1515E+01  0.2512E+02
  -3.130  0.1508E+01  0.2514E+02
  -3.120  0.1499E+01  0.2515E+02
  -3.110  0.1490E+01  0.2517E+02
  -3.100  0.1483E+01  0.2518E+02
  -3.090  0.1474E+01  0.2520E+02
  -3.080  0.1466E+01  0.2521E+02
  -3.070  0.1458E+01  0.2523E+02
  -3.060  0.1450E+01  0.2524E+02
  -3.050  0.1441E+01  0.2526E+02
  -3.040  0.1432E+01  0.2527E+02
  -3.030  0.1425E+01  0.2528E+02
  -3.020  0.1417E+01  0.2530E+02
  -3.010  0.1409E+01  0.2531E+02
  -3.000  0.1401E+01  0.2533E+02
  -2.990  0.1392E+01  0.2534E+02
  -2.980  0.1383E+01  0.2535E+02
  -2.970  0.1376E+01  0.2537E+02
  -2.960  0.1368E+01  0.2538E+02
  -2.950  0.1360E+01  0.2540E+02
  -2.940  0.1351E+01  0.2541E+02
  -2.930  0.1343E+01  0.2542E+02
  -2.920  0.1334E+01  0.2544E+02
  -2.910  0.1326E+01  0.2545E+02
  -2.900  0.1319E+01  0.2546E+02
  -2.890  0.1311E+01  0.2548E+02
  -2.880  0.1303E+01  0.2549E+02
  -2.870  0.1294E+01  0.2550E+02
  -2.860  0.1285E+01  0.2551E+02
  -2.850  0.1277E+01  0.2553E+02
  -2.840  0.1270E+01  0.2554E+02
  -2.830  0.1263E+01  0.2555E+02
  -2.820  0.1254E+01  0.2557E+02
  -2.810  0.1245E+01  0.2558E+02
  -2.800  0.1235E+01  0.2559E+02
  -2.790  0.1228E+01  0.2560E+02
  -2.780  0.1222E+01  0.2561E+02
  -2.770  0.1213E+01  0.2563E+02
  -2.760  0.1203E+01  0.2564E+02
  -2.750  0.1194E+01  0.2565E+02
  -2.740  0.1191E+01  0.2566E+02
  -2.730  0.1177E+01  0.2568E+02
  -2.720  0.1173E+01  0.2569E+02
  -2.710  0.1115E+01  0.2570E+02
  -2.700  0.1016E+01  0.2571E+02
  -2.690  0.9564E+00  0.2572E+02
  -2.680  0.9130E+00  0.2573E+02
  -2.670  0.8722E+00  0.2574E+02
  -2.660  0.8362E+00  0.2575E+02
  -2.650  0.8055E+00  0.2575E+02
  -2.640  0.7779E+00  0.2576E+02
  -2.630  0.7504E+00  0.2577E+02
  -2.620  0.7246E+00  0.2578E+02
  -2.610  0.7020E+00  0.2578E+02
  -2.600  0.6790E+00  0.2579E+02
  -2.590  0.6582E+00  0.2580E+02
  -2.580  0.6383E+00  0.2580E+02
  -2.570  0.6196E+00  0.2581E+02
  -2.560  0.6011E+00  0.2582E+02
  -2.550  0.5832E+00  0.2582E+02
  -2.540  0.5671E+00  0.2583E+02
  -2.530  0.5499E+00  0.2583E+02
  -2.520  0.5346E+00  0.2584E+02
  -2.510  0.5203E+00  0.2584E+02
  -2.500  0.5056E+00  0.2585E+02
  -2.490  0.4911E+00  0.2585E+02
  -2.480  0.4779E+00  0.2586E+02
  -2.470  0.4643E+00  0.2586E+02
  -2.460  0.4511E+00  0.2587E+02
  -2.450  0.4397E+00  0.2587E+02
  -2.440  0.4279E+00  0.2588E+02
  -2.430  0.4160E+00  0.2588E+02
  -2.420  0.4042E+00  0.2589E+02
  -2.410  0.3938E+00  0.2589E+02
  -2.400  0.3826E+00  0.2589E+02
  -2.390  0.3718E+00  0.2590E+02
  -2.380  0.3627E+00  0.2590E+02
  -2.370  0.3523E+00  0.2590E+02
  -2.360  0.3429E+00  0.2591E+02
  -2.350  0.3334E+00  0.2591E+02
  -2.340  0.3243E+00  0.2591E+02
  -2.330  0.3157E+00  0.2592E+02
  -2.320  0.3063E+00  0.2592E+02
  -2.310  0.2977E+00  0.2592E+02
  -2.300  0.2904E+00  0.2593E+02
  -2.290  0.2820E+00  0.2593E+02
  -2.280  0.2741E+00  0.2593E+02
  -2.270  0.2661E+00  0.2594E+02
  -2.260  0.2586E+00  0.2594E+02
  -2.250  0.2516E+00  0.2594E+02
  -2.240  0.2439E+00  0.2594E+02
  -2.230  0.2366E+00  0.2595E+02
  -2.220  0.2307E+00  0.2595E+02
  -2.210  0.2238E+00  0.2595E+02
  -2.200  0.2173E+00  0.2595E+02
  -2.190  0.2105E+00  0.2595E+02
  -2.180  0.2038E+00  0.2596E+02
  -2.170  0.1982E+00  0.2596E+02
  -2.160  0.1920E+00  0.2596E+02
  -2.150  0.1858E+00  0.2596E+02
  -2.140  0.1802E+00  0.2596E+02
  -2.130  0.1751E+00  0.2597E+02
  -2.120  0.1697E+00  0.2597E+02
  -2.110  0.1638E+00  0.2597E+02
  -2.100  0.1582E+00  0.2597E+02
  -2.090  0.1530E+00  0.2597E+02
  -2.080  0.1482E+00  0.2597E+02
  -2.070  0.1429E+00  0.2598E+02
  -2.060  0.1379E+00  0.2598E+02
  -2.050  0.1337E+00  0.2598E+02
  -2.040  0.1291E+00  0.2598E+02
  -2.030  0.1244E+00  0.2598E+02
  -2.020  0.1196E+00  0.2598E+02
  -2.010  0.1148E+00  0.2598E+02
  -2.000  0.1106E+00  0.2598E+02
  -1.990  0.1064E+00  0.2599E+02
  -1.980  0.1022E+00  0.2599E+02
  -1.970  0.9798E-01  0.2599E+02
  -1.960  0.9437E-01  0.2599E+02
  -1.950  0.9047E-01  0.2599E+02
  -1.940  0.8638E-01  0.2599E+02
  -1.930  0.8217E-01  0.2599E+02
  -1.920  0.7851E-01  0.2599E+02
  -1.910  0.7475E-01  0.2599E+02
  -1.900  0.7088E-01  0.2599E+02
  -1.890  0.6715E-01  0.2599E+02
  -1.880  0.6391E-01  0.2599E+02
  -1.870  0.6072E-01  0.2600E+02
  -1.860  0.5731E-01  0.2600E+02
  -1.850  0.5354E-01  0.2600E+02
  -1.840  0.4964E-01  0.2600E+02
  -1.830  0.4584E-01  0.2600E+02
  -1.820  0.4228E-01  0.2600E+02
  -1.810  0.3963E-01  0.2600E+02
  -1.800  0.3693E-01  0.2600E+02
  -1.790  0.3272E-01  0.2600E+02
  -1.780  0.2798E-01  0.2600E+02
  -1.770  0.2379E-01  0.2600E+02
  -1.760  0.2059E-01  0.2600E+02
  -1.750  0.1660E-01  0.2600E+02
  -1.740  0.7327E-02  0.2600E+02
  -1.730  0.3087E-03  0.2600E+02
  -1.720  0.0000E+00  0.2600E+02
  -1.710  0.0000E+00  0.2600E+02
  -1.700  0.0000E+00  0.2600E+02
  -1.690  0.0000E+00  0.2600E+02
  -1.680  0.0000E+00  0.2600E+02
  -1.670  0.0000E+00  0.2600E+02
  -1.660  0.0000E+00  0.2600E+02
  -1.650  0.0000E+00  0.2600E+02
  -1.640  0.0000E+00  0.2600E+02
  -1.630  0.0000E+00  0.2600E+02
  -1.620  0.0000E+00  0.2600E+02
  -1.610  0.0000E+00  0.2600E+02
  -1.600  0.0000E+00  0.2600E+02
  -1.590  0.0000E+00  0.2600E+02
  -1.580  0.0000E+00  0.2600E+02
  -1.570  0.0000E+00  0.2600E+02
  -1.560  0.0000E+00  0.2600E+02
  -1.550  0.0000E+00  0.2600E+02
  -1.540  0.0000E+00  0.2600E+02
  -1.530  0.0000E+00  0.2600E+02
  -1.520  0.0000E+00  0.2600E+02
  -1.510  0.0000E+00  0.2600E+02
  -1.500  0.0000E+00  0.2600E+02
  -1.490  0.0000E+00  0.2600E+02
  -1.480  0.0000E+00  0.2600E+02
  -1.470  0.0000E+00  0.2600E+02
  -1.460  0.0000E+00  0.2600E+02
  -1.450  0.0000E+00  0.2600E+02
  -1.440  0.0000E+00  0.2600E+02
  -1.430  0.0000E+00  0.2600E+02
  -1.420  0.0000E+00  0.2600E+02
  -1.410  0.0000E+00  0.2600E+02
  -1.400  0.0000E+00  0.2600E+02
  -1.390  0.0000E+00  0.2600E+02
  -1.380  0.0000E+00  0.2600E+02
  -1.370  0.0000E+00  0.2600E+02
  -1.360  0.0000E+00  0.2600E+02
  -1.350  0.0000E+00  0.2600E+02
  -1.340  0.0000E+00  0.2600E+02
  -1.330  0.0000E+00  0.2600E+02
  -1.320  0.0000E+00  0.2600E+02
  -1.310  0.0000E+00  0.2600E+02
  -1.300  0.0000E+00  0.2600E+02
  -1.290  0.0000E+00  0.2600E+02
  -1.280  0.0000E+00  0.2600E+02
  -1.270  0.0000E+00  0.2600E+02
  -1.260  0.0000E+00  0.2600E+02
  -1.250  0.0000E+00  0.2600E+02
  -1.240  0.0000E+00  0.2600E+02
  -1.230  0.0000E+00  0.2600E+02
  -1.220  0.0000E+00  0.2600E+02
  -1.210  0.0000E+00  0.2600E+02
  -1.200  0.0000E+00  0.2600E+02
  -1.190  0.0000E+00  0.2600E+02
  -1.180  0.0000E+00  0.2600E+02
  -1.170  0.0000E+00  0.2600E+02
  -1.160  0.0000E+00  0.2600E+02
  -1.150  0.0000E+00  0.2600E+02
  -1.140  0.0000E+00  0.2600E+02
  -1.130  0.0000E+00  0.2600E+02
  -1.120  0.0000E+00  0.2600E+02
  -1.110  0.0000E+00  0.2600E+02
  -1.100  0.0000E+00  0.2600E+02
  -1.090  0.0000E+00  0.2600E+02
  -1.080  0.0000E+00  0.2600E+02
  -1.070  0.0000E+00  0.2600E+02
  -1.060  0.0000E+00  0.2600E+02
  -1.050  0.0000E+00  0.2600E+02
  -1.040  0.0000E+00  0.2600E+02
  -1.030  0.0000E+00  0.2600E+02
  -1.020  0.0000E+00  0.2600E+02
  -1.010  0.0000E+00  0.2600E+02
  -1.000  0.0000E+00  0.2600E+02
  -0.990  0.0000E+00  0.2600E+02
  -0.980  0.0000E+00  0.2600E+02
  -0.970  0.0000E+00  0.2600E+02
  -0.960  0.0000E+00  0.2600E+02
  -0.950  0.0000E+00  0.2600E+02
  -0.940  0.0000E+00  0.2600E+02
  -0.930  0.0000E+00  0.2600E+02
  -0.920  0.0000E+00  0.2600E+02
  -0.910  0.0000E+00  0.2600E+02
  -0.900  0.0000E+00  0.2600E+02
  -0.890  0.0000E+00  0.2600E+02
  -0.880  0.0000E+00  0.2600E+02
  -0.870  0.0000E+00  0.2600E+02
  -0.860  0.0000E+00  0.2600E+02
  -0.850  0.0000E+00  0.2600E+02
  -0.840  0.0000E+00  0.2600E+02
  -0.830  0.0000E+00  0.2600E+02
  -0.820  0.0000E+00  0.2600E+02
  -0.810  0.0000E+00  0.2600E+02
  -0.800  0.0000E+00  0.2600E+02
  -0.790  0.0000E+00  0.2600E+02
  -0.780  0.0000E+00  0.2600E+02
  -0.770  0.0000E+00  0.2600E+02
  -0.760  0.0000E+00  0.2600E+02
  -0.750  0.0000E+00  0.2600E+02
  -0.740  0.0000E+00  0.2600E+02
  -0.730  0.0000E+00  0.2600E+02
  -0.720  0.0000E+00  0.2600E+02
  -0.710  0.0000E+00  0.2600E+02
  -0.700  0.0000E+00  0.2600E+02
  -0.690  0.0000E+00  0.2600E+02
  -0.680  0.0000E+00  0.2600E+02
  -0.670  0.0000E+00  0.2600E+02
  -0.660  0.0000E+00  0.2600E+02
  -0.650  0.0000E+00  0.2600E+02
  -0.640  0.0000E+00  0.2600E+02
  -0.630  0.0000E+00  0.2600E+02
  -0.620  0.0000E+00  0.2600E+02
  -0.610  0.0000E+00  0.2600E+02
  -0.600  0.0000E+00  0.2600E+02
  -0.590  0.0000E+00  0.2600E+02
  -0.580  0.0000E+00  0.2600E+02
  -0.570  0.0000E+00  0.2600E+02
  -0.560  0.0000E+00  0.2600E+02
  -0.550  0.0000E+00  0.2600E+02
  -0.540  0.0000E+00  0.2600E+02
  -0.530  0.0000E+00  0.2600E+02
  -0.520  0.0000E+00  0.2600E+02
  -0.510  0.0000E+00  0.2600E+02
  -0.500  0.0000E+00  0.2600E+02
  -0.490  0.0000E+00  0.2600E+02
  -0.480  0.0000E+00  0.2600E+02
  -0.470  0.0000E+00  0.2600E+02
  -0.460  0.0000E+00  0.2600E+02
  -0.450  0.0000E+00  0.2600E+02
  -0.440  0.2415E-03  0.2600E+02
  -0.430  0.4908E+00  0.2600E+02
  -0.420  0.1085E+01  0.2601E+02
  -0.410  0.1396E+01  0.2602E+02
  -0.400  0.1674E+01  0.2604E+02
  -0.390  0.1955E+01  0.2606E+02
  -0.380  0.2236E+01  0.2608E+02
  -0.370  0.2510E+01  0.2610E+02
  -0.360  0.2785E+01  0.2613E+02
  -0.350  0.3096E+01  0.2616E+02
  -0.340  0.3438E+01  0.2619E+02
  -0.330  0.3882E+01  0.2622E+02
  -0.320  0.4607E+01  0.2627E+02
  -0.310  0.5267E+01  0.2632E+02
  -0.300  0.5153E+01  0.2637E+02
  -0.290  0.5009E+01  0.2642E+02
  -0.280  0.4992E+01  0.2647E+02
  -0.270  0.4976E+01  0.2652E+02
  -0.260  0.4921E+01  0.2657E+02
  -0.250  0.4830E+01  0.2662E+02
  -0.240  0.4779E+01  0.2667E+02
  -0.230  0.4732E+01  0.2671E+02
  -0.220  0.4691E+01  0.2676E+02
  -0.210  0.4663E+01  0.2681E+02
  -0.200  0.4617E+01  0.2685E+02
  -0.190  0.4572E+01  0.2690E+02
  -0.180  0.4505E+01  0.2695E+02
  -0.170  0.4482E+01  0.2699E+02
  -0.160  0.4450E+01  0.2704E+02
  -0.150  0.4389E+01  0.2708E+02
  -0.140  0.4079E+01  0.2712E+02
  -0.130  0.3808E+01  0.2716E+02
  -0.120  0.3660E+01  0.2720E+02
  -0.110  0.3526E+01  0.2724E+02
  -0.100  0.3411E+01  0.2727E+02
  -0.090  0.3294E+01  0.2730E+02
  -0.080  0.3214E+01  0.2734E+02
  -0.070  0.3136E+01  0.2737E+02
  -0.060  0.3069E+01  0.2740E+02
  -0.050  0.3006E+01  0.2743E+02
  -0.040  0.2947E+01  0.2746E+02
  -0.030  0.2892E+01  0.2749E+02
  -0.020  0.2840E+01  0.2752E+02
  -0.010  0.2795E+01  0.2754E+02
   0.000  0.2752E+01  0.2757E+02
   0.010  0.2716E+01  0.2760E+02
   0.020  0.2670E+01  0.2763E+02
   0.030  0.2631E+01  0.2765E+02
   0.040  0.2598E+01  0.2768E+02
   0.050  0.2561E+01  0.2771E+02
   0.060  0.2526E+01  0.2773E+02
   0.070  0.2492E+01  0.2776E+02
   0.080  0.2468E+01  0.2778E+02
   0.090  0.2447E+01  0.2781E+02
   0.100  0.2424E+01  0.2783E+02
   0.110  0.2400E+01  0.2785E+02
   0.120  0.2377E+01  0.2788E+02
   0.130  0.2353E+01  0.2790E+02
   0.140  0.2337E+01  0.2792E+02
   0.150  0.2311E+01  0.2795E+02
   0.160  0.2288E+01  0.2797E+02
   0.170  0.2268E+01  0.2799E+02
   0.180  0.2248E+01  0.2802E+02
   0.190  0.2230E+01  0.2804E+02
   0.200  0.2214E+01  0.2806E+02
   0.210  0.2196E+01  0.2808E+02
   0.220  0.2180E+01  0.2810E+02
   0.230  0.2170E+01  0.2813E+02
   0.240  0.2157E+01  0.2815E+02
   0.250  0.2147E+01  0.2817E+02
   0.260  0.2133E+01  0.2819E+02
   0.270  0.2120E+01  0.2821E+02
   0.280  0.2107E+01  0.2823E+02
   0.290  0.2097E+01  0.2825E+02
   0.300  0.2084E+01  0.2828E+02
   0.310  0.2073E+01  0.2830E+02
   0.320  0.2059E+01  0.2832E+02
   0.330  0.2049E+01  0.2834E+02
   0.340  0.2038E+01  0.2836E+02
   0.350  0.2031E+01  0.2838E+02
   0.360  0.2024E+01  0.2840E+02
   0.370  0.2013E+01  0.2842E+02
   0.380  0.2005E+01  0.2844E+02
   0.390  0.2000E+01  0.2846E+02
   0.400  0.1993E+01  0.2848E+02
   0.410  0.1987E+01  0.2850E+02
   0.420  0.1983E+01  0.2852E+02
   0.430  0.1977E+01  0.2854E+02
   0.440  0.1972E+01  0.2856E+02
   0.450  0.1965E+01  0.2858E+02
   0.460  0.1960E+01  0.2860E+02
   0.470  0.1955E+01  0.2862E+02
   0.480  0.1951E+01  0.2864E+02
   0.490  0.1947E+01  0.2866E+02
   0.500  0.1942E+01  0.2868E+02
   0.510  0.1938E+01  0.2869E+02
   0.520  0.1935E+01  0.2871E+02
   0.530  0.1936E+01  0.2873E+02
   0.540  0.1930E+01  0.2875E+02
   0.550  0.1930E+01  0.2877E+02
   0.560  0.1931E+01  0.2879E+02
   0.570  0.1930E+01  0.2881E+02
   0.580  0.1928E+01  0.2883E+02
   0.590  0.1930E+01  0.2885E+02
   0.600  0.1932E+01  0.2887E+02
   0.610  0.1934E+01  0.2889E+02
   0.620  0.1933E+01  0.2891E+02
   0.630  0.1937E+01  0.2893E+02
   0.640  0.1939E+01  0.2895E+02
   0.650  0.1941E+01  0.2897E+02
   0.660  0.1946E+01  0.2898E+02
   0.670  0.1949E+01  0.2900E+02
   0.680  0.1953E+01  0.2902E+02
   0.690  0.1960E+01  0.2904E+02
   0.700  0.1967E+01  0.2906E+02
   0.710  0.1975E+01  0.2908E+02
   0.720  0.1981E+01  0.2910E+02
   0.730  0.1993E+01  0.2912E+02
   0.740  0.1997E+01  0.2914E+02
   0.750  0.2009E+01  0.2916E+02
   0.760  0.2023E+01  0.2918E+02
   0.770  0.2035E+01  0.2920E+02
   0.780  0.2045E+01  0.2922E+02
   0.790  0.2059E+01  0.2924E+02
   0.800  0.2077E+01  0.2926E+02
   0.810  0.2093E+01  0.2929E+02
   0.820  0.2112E+01  0.2931E+02
   0.830  0.2139E+01  0.2933E+02
   0.840  0.2172E+01  0.2935E+02
   0.850  0.2213E+01  0.2937E+02
   0.860  0.2251E+01  0.2939E+02
   0.870  0.3021E+01  0.2942E+02
   0.880  0.3515E+01  0.2945E+02
   0.890  0.3944E+01  0.2949E+02
   0.900  0.4353E+01  0.2953E+02
   0.910  0.4762E+01  0.2958E+02
   0.920  0.5225E+01  0.2963E+02
   0.930  0.5689E+01  0.2968E+02
   0.940  0.6262E+01  0.2974E+02
   0.950  0.7025E+01  0.2981E+02
   0.960  0.8264E+01  0.2988E+02
   0.970  0.8629E+01  0.2997E+02
   0.980  0.8028E+01  0.3005E+02
   0.990  0.1011E+02  0.3014E+02
   1.000  0.1116E+02  0.3025E+02
   1.010  0.1205E+02  0.3036E+02
   1.020  0.1337E+02  0.3049E+02
   1.030  0.1294E+02  0.3062E+02
   1.040  0.1332E+02  0.3076E+02
   1.050  0.9291E+01  0.3087E+02
   1.060  0.7288E+01  0.3095E+02
   1.070  0.6657E+01  0.3102E+02
   1.080  0.6473E+01  0.3109E+02
   1.090  0.6394E+01  0.3115E+02
   1.100  0.6408E+01  0.3121E+02
   1.110  0.6620E+01  0.3128E+02
   1.120  0.7405E+01  0.3135E+02
   1.130  0.6879E+01  0.3142E+02
   1.140  0.6283E+01  0.3149E+02
   1.150  0.4542E+01  0.3154E+02
   1.160  0.4081E+01  0.3158E+02
   1.170  0.3886E+01  0.3162E+02
   1.180  0.3922E+01  0.3166E+02
   1.190  0.4225E+01  0.3170E+02
   1.200  0.4419E+01  0.3175E+02
   1.210  0.4390E+01  0.3179E+02
   1.220  0.4336E+01  0.3183E+02
   1.230  0.4216E+01  0.3188E+02
   1.240  0.4100E+01  0.3192E+02
   1.250  0.3952E+01  0.3196E+02
   1.260  0.3770E+01  0.3200E+02
   1.270  0.3435E+01  0.3203E+02
   1.280  0.3400E+01  0.3207E+02
   1.290  0.3373E+01  0.3210E+02
   1.300  0.3341E+01  0.3213E+02
   1.310  0.3322E+01  0.3217E+02
   1.320  0.3321E+01  0.3220E+02
   1.330  0.3304E+01  0.3223E+02
   1.340  0.3327E+01  0.3227E+02
   1.350  0.3368E+01  0.3230E+02
   1.360  0.3440E+01  0.3233E+02
   1.370  0.3487E+01  0.3237E+02
   1.380  0.3538E+01  0.3240E+02
   1.390  0.3616E+01  0.3244E+02
   1.400  0.3701E+01  0.3248E+02
   1.410  0.3783E+01  0.3251E+02
   1.420  0.3896E+01  0.3255E+02
   1.430  0.4005E+01  0.3259E+02
   1.440  0.4148E+01  0.3263E+02
   1.450  0.4291E+01  0.3267E+02
   1.460  0.4424E+01  0.3272E+02
   1.470  0.4606E+01  0.3276E+02
   1.480  0.4806E+01  0.3281E+02
   1.490  0.5040E+01  0.3286E+02
   1.500  0.5298E+01  0.3291E+02
   1.510  0.5607E+01  0.3297E+02
   1.520  0.6017E+01  0.3302E+02
   1.530  0.6880E+01  0.3309E+02
   1.540  0.7052E+01  0.3316E+02
   1.550  0.7408E+01  0.3323E+02
   1.560  0.7426E+01  0.3330E+02
   1.570  0.7427E+01  0.3338E+02
   1.580  0.7443E+01  0.3345E+02
   1.590  0.7467E+01  0.3353E+02
   1.600  0.7466E+01  0.3360E+02
   1.610  0.7479E+01  0.3368E+02
   1.620  0.7516E+01  0.3375E+02
   1.630  0.7545E+01  0.3383E+02
   1.640  0.7285E+01  0.3390E+02
   1.650  0.6500E+01  0.3397E+02
   1.660  0.6122E+01  0.3403E+02
   1.670  0.5885E+01  0.3409E+02
   1.680  0.5867E+01  0.3415E+02
   1.690  0.5887E+01  0.3421E+02
   1.700  0.5940E+01  0.3427E+02
   1.710  0.6007E+01  0.3433E+02
   1.720  0.6123E+01  0.3439E+02
   1.730  0.6496E+01  0.3445E+02
   1.740  0.7967E+01  0.3452E+02
   1.750  0.8286E+01  0.3460E+02
   1.760  0.8094E+01  0.3469E+02
   1.770  0.8180E+01  0.3477E+02
   1.780  0.8285E+01  0.3485E+02
   1.790  0.8429E+01  0.3493E+02
   1.800  0.8737E+01  0.3502E+02
   1.810  0.9621E+01  0.3511E+02
   1.820  0.9759E+01  0.3521E+02
   1.830  0.9862E+01  0.3531E+02
   1.840  0.1007E+02  0.3541E+02
   1.850  0.1007E+02  0.3551E+02
   1.860  0.9459E+01  0.3561E+02
   1.870  0.7649E+01  0.3569E+02
   1.880  0.6963E+01  0.3576E+02
   1.890  0.6456E+01  0.3583E+02
   1.900  0.5787E+01  0.3589E+02
   1.910  0.5518E+01  0.3595E+02
   1.920  0.5473E+01  0.3600E+02
   1.930  0.5490E+01  0.3606E+02
   1.940  0.5642E+01  0.3611E+02
   1.950  0.5965E+01  0.3617E+02
   1.960  0.6298E+01  0.3623E+02
   1.970  0.6584E+01  0.3630E+02
   1.980  0.6907E+01  0.3636E+02
   1.990  0.7270E+01  0.3643E+02
   2.000  0.7668E+01  0.3651E+02
   2.010  0.8126E+01  0.3659E+02
   2.020  0.8680E+01  0.3667E+02
   2.030  0.9350E+01  0.3676E+02
   2.040  0.1107E+02  0.3686E+02
   2.050  0.1406E+02  0.3698E+02
   2.060  0.1453E+02  0.3713E+02
   2.070  0.1399E+02  0.3727E+02
   2.080  0.1456E+02  0.3741E+02
   2.090  0.1709E+02  0.3758E+02
   2.100  0.1509E+02  0.3774E+02
   2.110  0.1401E+02  0.3788E+02
   2.120  0.1434E+02  0.3803E+02
   2.130  0.1380E+02  0.3817E+02
   2.140  0.1284E+02  0.3831E+02
   2.150  0.1202E+02  0.3843E+02
   2.160  0.1158E+02  0.3855E+02
   2.170  0.1125E+02  0.3866E+02
   2.180  0.1127E+02  0.3877E+02
   2.190  0.1212E+02  0.3889E+02
   2.200  0.1166E+02  0.3901E+02
   2.210  0.1133E+02  0.3913E+02
   2.220  0.1106E+02  0.3924E+02
   2.230  0.1107E+02  0.3935E+02
   2.240  0.1136E+02  0.3946E+02
   2.250  0.1174E+02  0.3958E+02
   2.260  0.1202E+02  0.3970E+02
   2.270  0.1094E+02  0.3982E+02
   2.280  0.1035E+02  0.3992E+02
   2.290  0.9970E+01  0.4002E+02
   2.300  0.9556E+01  0.4012E+02
   2.310  0.9294E+01  0.4021E+02
   2.320  0.8984E+01  0.4031E+02
   2.330  0.8747E+01  0.4040E+02
   2.340  0.8495E+01  0.4048E+02
   2.350  0.8333E+01  0.4057E+02
   2.360  0.8175E+01  0.4065E+02
   2.370  0.7970E+01  0.4073E+02
   2.380  0.7715E+01  0.4081E+02
   2.390  0.7556E+01  0.4088E+02
   2.400  0.7406E+01  0.4096E+02
   2.410  0.7302E+01  0.4103E+02
   2.420  0.7091E+01  0.4110E+02
   2.430  0.7013E+01  0.4117E+02
   2.440  0.6942E+01  0.4124E+02
   2.450  0.6771E+01  0.4131E+02
   2.460  0.6647E+01  0.4138E+02
   2.470  0.6506E+01  0.4144E+02
   2.480  0.6398E+01  0.4151E+02
   2.490  0.6297E+01  0.4157E+02
   2.500  0.6190E+01  0.4164E+02
   2.510  0.6067E+01  0.4170E+02
   2.520  0.6001E+01  0.4176E+02
   2.530  0.5905E+01  0.4182E+02
   2.540  0.5811E+01  0.4188E+02
   2.550  0.5704E+01  0.4193E+02
   2.560  0.5629E+01  0.4199E+02
   2.570  0.5552E+01  0.4205E+02
   2.580  0.5469E+01  0.4210E+02
   2.590  0.5381E+01  0.4215E+02
   2.600  0.5295E+01  0.4221E+02
   2.610  0.5238E+01  0.4226E+02
   2.620  0.5163E+01  0.4231E+02
   2.630  0.5076E+01  0.4236E+02
   2.640  0.5025E+01  0.4241E+02
   2.650  0.4955E+01  0.4246E+02
   2.660  0.4866E+01  0.4251E+02
   2.670  0.4839E+01  0.4256E+02
   2.680  0.4753E+01  0.4261E+02
   2.690  0.4719E+01  0.4266E+02
   2.700  0.4605E+01  0.4270E+02
   2.710  0.3402E+01  0.4275E+02
   2.720  0.2148E+01  0.4277E+02
   2.730  0.1219E+01  0.4279E+02
   2.740  0.1227E+01  0.4280E+02
   2.750  0.1234E+01  0.4281E+02
   2.760  0.1242E+01  0.4282E+02
   2.770  0.1253E+01  0.4284E+02
   2.780  0.1264E+01  0.4285E+02
   2.790  0.1277E+01  0.4286E+02
   2.800  0.1292E+01  0.4288E+02
   2.810  0.1305E+01  0.4289E+02
   2.820  0.1319E+01  0.4290E+02
   2.830  0.1336E+01  0.4291E+02
   2.840  0.1353E+01  0.4293E+02
   2.850  0.1372E+01  0.4294E+02
   2.860  0.1393E+01  0.4296E+02
   2.870  0.1419E+01  0.4297E+02
   2.880  0.1449E+01  0.4298E+02
   2.890  0.1481E+01  0.4300E+02
   2.900  0.1517E+01  0.4301E+02
   2.910  0.1558E+01  0.4303E+02
   2.920  0.1604E+01  0.4304E+02
   2.930  0.1681E+01  0.4306E+02
   2.940  0.1808E+01  0.4308E+02
   2.950  0.1962E+01  0.4310E+02
   2.960  0.1929E+01  0.4312E+02
   2.970  0.1912E+01  0.4314E+02
   2.980  0.1883E+01  0.4316E+02
   2.990  0.1839E+01  0.4317E+02
   3.000  0.1801E+01  0.4319E+02
   3.010  0.1766E+01  0.4321E+02
   3.020  0.1732E+01  0.4323E+02
   3.030  0.1702E+01  0.4324E+02
   3.040  0.1667E+01  0.4326E+02
   3.050  0.1623E+01  0.4328E+02
   3.060  0.1596E+01  0.4329E+02
   3.070  0.1567E+01  0.4331E+02
   3.080  0.1535E+01  0.4333E+02
   3.090  0.1499E+01  0.4334E+02
   3.100  0.1467E+01  0.4336E+02
   3.110  0.1438E+01  0.4337E+02
   3.120  0.1412E+01  0.4338E+02
   3.130  0.1374E+01  0.4340E+02
   3.140  0.1355E+01  0.4341E+02
   3.150  0.1320E+01  0.4343E+02
   3.160  0.1299E+01  0.4344E+02
   3.170  0.1274E+01  0.4345E+02
   3.180  0.1246E+01  0.4346E+02
   3.190  0.1225E+01  0.4348E+02
   3.200  0.1202E+01  0.4349E+02
   3.210  0.1180E+01  0.4350E+02
   3.220  0.1152E+01  0.4351E+02
   3.230  0.1135E+01  0.4352E+02
   3.240  0.1112E+01  0.4353E+02
   3.250  0.1092E+01  0.4355E+02
   3.260  0.1075E+01  0.4356E+02
   3.270  0.1056E+01  0.4357E+02
   3.280  0.1035E+01  0.4358E+02
   3.290  0.1014E+01  0.4359E+02
   3.300  0.1003E+01  0.4360E+02
   3.310  0.9784E+00  0.4361E+02
   3.320  0.9634E+00  0.4362E+02
   3.330  0.9499E+00  0.4363E+02
   3.340  0.9351E+00  0.4364E+02
   3.350  0.9187E+00  0.4365E+02
   3.360  0.9029E+00  0.4365E+02
   3.370  0.8867E+00  0.4366E+02
   3.380  0.8702E+00  0.4367E+02
   3.390  0.8613E+00  0.4368E+02
   3.400  0.8457E+00  0.4369E+02
   3.410  0.8271E+00  0.4370E+02
   3.420  0.8178E+00  0.4371E+02
   3.430  0.8061E+00  0.4371E+02
   3.440  0.7936E+00  0.4372E+02
   3.450  0.7810E+00  0.4373E+02
   3.460  0.7674E+00  0.4374E+02
   3.470  0.7545E+00  0.4375E+02
   3.480  0.7410E+00  0.4375E+02
   3.490  0.7333E+00  0.4376E+02
   3.500  0.7208E+00  0.4377E+02
   3.510  0.7070E+00  0.4377E+02
   3.520  0.6988E+00  0.4378E+02
   3.530  0.6890E+00  0.4379E+02
   3.540  0.6783E+00  0.4380E+02
   3.550  0.6676E+00  0.4380E+02
   3.560  0.6565E+00  0.4381E+02
   3.570  0.6450E+00  0.4382E+02
   3.580  0.6340E+00  0.4382E+02
   3.590  0.6256E+00  0.4383E+02
   3.600  0.6161E+00  0.4383E+02
   3.610  0.6050E+00  0.4384E+02
   3.620  0.5990E+00  0.4385E+02
   3.630  0.5901E+00  0.4385E+02
   3.640  0.5808E+00  0.4386E+02
   3.650  0.5710E+00  0.4386E+02
   3.660  0.5611E+00  0.4387E+02
   3.670  0.5507E+00  0.4388E+02
   3.680  0.5400E+00  0.4388E+02
   3.690  0.5326E+00  0.4389E+02
   3.700  0.5252E+00  0.4389E+02
   3.710  0.5193E+00  0.4390E+02
   3.720  0.5132E+00  0.4390E+02
   3.730  0.5044E+00  0.4391E+02
   3.740  0.4943E+00  0.4391E+02
   3.750  0.4832E+00  0.4392E+02
   3.760  0.4730E+00  0.4392E+02
   3.770  0.4657E+00  0.4393E+02
   3.780  0.4635E+00  0.4393E+02
   3.790  0.4617E+00  0.4394E+02
   3.800  0.4420E+00  0.4394E+02
   3.810  0.3879E+00  0.4394E+02
   3.820  0.3362E+00  0.4395E+02
   3.830  0.3030E+00  0.4395E+02
   3.840  0.2782E+00  0.4395E+02
   3.850  0.2572E+00  0.4396E+02
   3.860  0.2372E+00  0.4396E+02
   3.870  0.2229E+00  0.4396E+02
   3.880  0.2073E+00  0.4396E+02
   3.890  0.1943E+00  0.4397E+02
   3.900  0.1825E+00  0.4397E+02
   3.910  0.1713E+00  0.4397E+02
   3.920  0.1620E+00  0.4397E+02
   3.930  0.1528E+00  0.4397E+02
   3.940  0.1445E+00  0.4397E+02
   3.950  0.1366E+00  0.4398E+02
   3.960  0.1294E+00  0.4398E+02
   3.970  0.1221E+00  0.4398E+02
   3.980  0.1162E+00  0.4398E+02
   3.990  0.1104E+00  0.4398E+02
   4.000  0.1043E+00  0.4398E+02
   4.010  0.9941E-01  0.4398E+02
   4.020  0.9443E-01  0.4398E+02
   4.030  0.8963E-01  0.4398E+02
   4.040  0.8523E-01  0.4399E+02
   4.050  0.8159E-01  0.4399E+02
   4.060  0.7676E-01  0.4399E+02
   4.070  0.7342E-01  0.4399E+02
   4.080  0.6977E-01  0.4399E+02
   4.090  0.6622E-01  0.4399E+02
   4.100  0.6302E-01  0.4399E+02
   4.110  0.6026E-01  0.4399E+02
   4.120  0.5690E-01  0.4399E+02
   4.130  0.5406E-01  0.4399E+02
   4.140  0.5170E-01  0.4399E+02
   4.150  0.4913E-01  0.4399E+02
   4.160  0.4663E-01  0.4399E+02
   4.170  0.4426E-01  0.4399E+02
   4.180  0.4199E-01  0.4399E+02
   4.190  0.3992E-01  0.4399E+02
   4.200  0.3773E-01  0.4399E+02
   4.210  0.3560E-01  0.4399E+02
   4.220  0.3377E-01  0.4400E+02
   4.230  0.3220E-01  0.4400E+02
   4.240  0.3055E-01  0.4400E+02
   4.250  0.2886E-01  0.4400E+02
   4.260  0.2726E-01  0.4400E+02
   4.270  0.2576E-01  0.4400E+02
   4.280  0.2435E-01  0.4400E+02
   4.290  0.2295E-01  0.4400E+02
   4.300  0.2167E-01  0.4400E+02
   4.310  0.2014E-01  0.4400E+02
   4.320  0.1886E-01  0.4400E+02
   4.330  0.1773E-01  0.4400E+02
   4.340  0.1673E-01  0.4400E+02
   4.350  0.1573E-01  0.4400E+02
   4.360  0.1470E-01  0.4400E+02
   4.370  0.1373E-01  0.4400E+02
   4.380  0.1282E-01  0.4400E+02
   4.390  0.1197E-01  0.4400E+02
   4.400  0.1118E-01  0.4400E+02
   4.410  0.1034E-01  0.4400E+02
   4.420  0.9614E-02  0.4400E+02
   4.430  0.8735E-02  0.4400E+02
   4.440  0.7977E-02  0.4400E+02
   4.450  0.7320E-02  0.4400E+02
   4.460  0.6765E-02  0.4400E+02
   4.470  0.6274E-02  0.4400E+02
   4.480  0.5804E-02  0.4400E+02
   4.490  0.5255E-02  0.4400E+02
   4.500  0.4733E-02  0.4400E+02
   4.510  0.4215E-02  0.4400E+02
   4.520  0.3701E-02  0.4400E+02
   4.530  0.3191E-02  0.4400E+02
   4.540  0.2685E-02  0.4400E+02
   4.550  0.2170E-02  0.4400E+02
   4.560  0.1755E-02  0.4400E+02
   4.570  0.1514E-02  0.4400E+02
   4.580  0.1277E-02  0.4400E+02
   4.590  0.1060E-02  0.4400E+02
   4.600  0.8629E-03  0.4400E+02
   4.610  0.6864E-03  0.4400E+02
   4.620  0.5302E-03  0.4400E+02
   4.630  0.3943E-03  0.4400E+02
   4.640  0.2786E-03  0.4400E+02
   4.650  0.1831E-03  0.4400E+02
   4.660  0.1080E-03  0.4400E+02
   4.670  0.5304E-04  0.4400E+02
   4.680  0.1839E-04  0.4400E+02
   4.690  0.3843E-05  0.4400E+02
   4.700  0.1136E-06  0.4400E+02
   4.710  0.4892E-06  0.4400E+02
   4.720  0.4930E-05  0.4400E+02
   4.730  0.2061E-04  0.4400E+02
   4.740  0.5028E-04  0.4400E+02
   4.750  0.1694E-01  0.4400E+02
   4.760  0.5276E-01  0.4400E+02
   4.770  0.8017E-01  0.4400E+02
   4.780  0.1101E+00  0.4400E+02
   4.790  0.1363E+00  0.4400E+02
   4.800  0.1611E+00  0.4400E+02
   4.810  0.1852E+00  0.4401E+02
   4.820  0.2074E+00  0.4401E+02
   4.830  0.2263E+00  0.4401E+02
   4.840  0.2422E+00  0.4401E+02
   4.850  0.2585E+00  0.4402E+02
   4.860  0.2752E+00  0.4402E+02
   4.870  0.2905E+00  0.4402E+02
   4.880  0.3077E+00  0.4402E+02
   4.890  0.3301E+00  0.4403E+02
   4.900  0.3452E+00  0.4403E+02
   4.910  0.3614E+00  0.4403E+02
   4.920  0.3794E+00  0.4404E+02
   4.930  0.4023E+00  0.4404E+02
   4.940  0.4206E+00  0.4405E+02
   4.950  0.4370E+00  0.4405E+02
   4.960  0.4576E+00  0.4405E+02
   4.970  0.4801E+00  0.4406E+02
   4.980  0.5008E+00  0.4406E+02
   4.990  0.5205E+00  0.4407E+02
   5.000  0.5419E+00  0.4407E+02
   5.010  0.5644E+00  0.4408E+02
   5.020  0.5883E+00  0.4409E+02
   5.030  0.6079E+00  0.4409E+02
   5.040  0.6338E+00  0.4410E+02
   5.050  0.6593E+00  0.4410E+02
   5.060  0.6869E+00  0.4411E+02
   5.070  0.7114E+00  0.4412E+02
   5.080  0.7396E+00  0.4413E+02
   5.090  0.7694E+00  0.4413E+02
   5.100  0.8006E+00  0.4414E+02
   5.110  0.8299E+00  0.4415E+02
   5.120  0.8631E+00  0.4416E+02
   5.130  0.9017E+00  0.4417E+02
   5.140  0.9369E+00  0.4418E+02
   5.150  0.9754E+00  0.4419E+02
   5.160  0.1022E+01  0.4420E+02
   5.170  0.1065E+01  0.4421E+02
   5.180  0.1111E+01  0.4422E+02
   5.190  0.1171E+01  0.4423E+02
   5.200  0.1228E+01  0.4424E+02
   5.210  0.1298E+01  0.4425E+02
   5.220  0.1381E+01  0.4427E+02
   5.230  0.1483E+01  0.4428E+02
   5.240  0.1632E+01  0.4430E+02
   5.250  0.1732E+01  0.4431E+02
   5.260  0.1777E+01  0.4433E+02
   5.270  0.1801E+01  0.4435E+02
   5.280  0.1807E+01  0.4437E+02
   5.290  0.1788E+01  0.4438E+02
   5.300  0.1769E+01  0.4440E+02
   5.310  0.1792E+01  0.4442E+02
   5.320  0.1795E+01  0.4444E+02
   5.330  0.1815E+01  0.4446E+02
   5.340  0.1817E+01  0.4447E+02
   5.350  0.1839E+01  0.4449E+02
   5.360  0.1854E+01  0.4451E+02
   5.370  0.1860E+01  0.4453E+02
   5.380  0.1881E+01  0.4455E+02
   5.390  0.1897E+01  0.4457E+02
   5.400  0.1905E+01  0.4459E+02
   5.410  0.1916E+01  0.4461E+02
   5.420  0.1926E+01  0.4462E+02
   5.430  0.1920E+01  0.4464E+02
   5.440  0.1934E+01  0.4466E+02
   5.450  0.1948E+01  0.4468E+02
   5.460  0.1952E+01  0.4470E+02
   5.470  0.1979E+01  0.4472E+02
   5.480  0.1991E+01  0.4474E+02
   5.490  0.2000E+01  0.4476E+02
   5.500  0.2025E+01  0.4478E+02
   5.510  0.2040E+01  0.4480E+02
   5.520  0.2055E+01  0.4482E+02
   5.530  0.2081E+01  0.4484E+02
   5.540  0.2095E+01  0.4486E+02
   5.550  0.2119E+01  0.4488E+02
   5.560  0.2145E+01  0.4491E+02
   5.570  0.2171E+01  0.4493E+02
   5.580  0.2079E+01  0.4495E+02
   5.590  0.1954E+01  0.4497E+02
   5.600  0.1872E+01  0.4499E+02
   5.610  0.1812E+01  0.4501E+02
   5.620  0.1764E+01  0.4502E+02
   5.630  0.1734E+01  0.4504E+02
   5.640  0.1707E+01  0.4506E+02
   5.650  0.1680E+01  0.4508E+02
   5.660  0.1657E+01  0.4509E+02
   5.670  0.1633E+01  0.4511E+02
   5.680  0.1610E+01  0.4513E+02
   5.690  0.1589E+01  0.4514E+02
   5.700  0.1570E+01  0.4516E+02
   5.710  0.1551E+01  0.4517E+02
   5.720  0.1536E+01  0.4519E+02
   5.730  0.1524E+01  0.4520E+02
   5.740  0.1513E+01  0.4522E+02
   5.750  0.1502E+01  0.4523E+02
   5.760  0.1494E+01  0.4525E+02
   5.770  0.1483E+01  0.4526E+02
   5.780  0.1472E+01  0.4528E+02
   5.790  0.1461E+01  0.4529E+02
   5.800  0.1450E+01  0.4531E+02
   5.810  0.1440E+01  0.4532E+02
   5.820  0.1430E+01  0.4534E+02
   5.830  0.1422E+01  0.4535E+02
   5.840  0.1413E+01  0.4537E+02
   5.850  0.1402E+01  0.4538E+02
   5.860  0.1393E+01  0.4539E+02
   5.870  0.1383E+01  0.4541E+02
   5.880  0.1375E+01  0.4542E+02
   5.890  0.1369E+01  0.4543E+02
   5.900  0.1363E+01  0.4545E+02
   5.910  0.1357E+01  0.4546E+02
   5.920  0.1351E+01  0.4548E+02
   5.930  0.1346E+01  0.4549E+02
   5.940  0.1341E+01  0.4550E+02
   5.950  0.1335E+01  0.4552E+02
   5.960  0.1332E+01  0.4553E+02
   5.970  0.1327E+01  0.4554E+02
   5.980  0.1323E+01  0.4556E+02
   5.990  0.1319E+01  0.4557E+02
   6.000  0.1315E+01  0.4558E+02
   6.010  0.1312E+01  0.4560E+02
   6.020  0.1309E+01  0.4561E+02
   6.030  0.1304E+01  0.4562E+02
   6.040  0.1300E+01  0.4563E+02
   6.050  0.1295E+01  0.4565E+02
   6.060  0.1291E+01  0.4566E+02
   6.070  0.1287E+01  0.4567E+02
   6.080  0.1281E+01  0.4569E+02
   6.090  0.1278E+01  0.4570E+02
   6.100  0.1276E+01  0.4571E+02
   6.110  0.1269E+01  0.4572E+02
   6.120  0.1267E+01  0.4574E+02
   6.130  0.1266E+01  0.4575E+02
   6.140  0.1262E+01  0.4576E+02
   6.150  0.1259E+01  0.4577E+02
   6.160  0.1256E+01  0.4579E+02
   6.170  0.1254E+01  0.4580E+02
   6.180  0.1250E+01  0.4581E+02
   6.190  0.1247E+01  0.4583E+02
   6.200  0.1244E+01  0.4584E+02
   6.210  0.1243E+01  0.4585E+02
   6.220  0.1241E+01  0.4586E+02
   6.230  0.1237E+01  0.4587E+02
   6.240  0.1235E+01  0.4589E+02
   6.250  0.1233E+01  0.4590E+02
   6.260  0.1232E+01  0.4591E+02
   6.270  0.1231E+01  0.4592E+02
   6.280  0.1230E+01  0.4594E+02
   6.290  0.1229E+01  0.4595E+02
   6.300  0.1228E+01  0.4596E+02
   6.310  0.1227E+01  0.4597E+02
   6.320  0.1224E+01  0.4599E+02
   6.330  0.1222E+01  0.4600E+02
   6.340  0.1221E+01  0.4601E+02
   6.350  0.1219E+01  0.4602E+02
   6.360  0.1217E+01  0.4603E+02
   6.370  0.1216E+01  0.4605E+02
   6.380  0.1219E+01  0.4606E+02
   6.390  0.1215E+01  0.4607E+02
   6.400  0.1212E+01  0.4608E+02
   6.410  0.1212E+01  0.4610E+02
   6.420  0.1210E+01  0.4611E+02
   6.430  0.1207E+01  0.4612E+02
   6.440  0.1207E+01  0.4613E+02
   6.450  0.1205E+01  0.4614E+02
   6.460  0.1204E+01  0.4616E+02
   6.470  0.1202E+01  0.4617E+02
   6.480  0.1202E+01  0.4618E+02
   6.490  0.1204E+01  0.4619E+02
   6.500  0.1201E+01  0.4620E+02
   6.510  0.1199E+01  0.4622E+02
   6.520  0.1198E+01  0.4623E+02
   6.530  0.1197E+01  0.4624E+02
   6.540  0.1202E+01  0.4625E+02
   6.550  0.1232E+01  0.4626E+02
   6.560  0.1242E+01  0.4628E+02
   6.570  0.1254E+01  0.4629E+02
   6.580  0.1264E+01  0.4630E+02
   6.590  0.1271E+01  0.4631E+02
   6.600  0.1279E+01  0.4633E+02
   6.610  0.1287E+01  0.4634E+02
   6.620  0.1295E+01  0.4635E+02
   6.630  0.1299E+01  0.4637E+02
   6.640  0.1306E+01  0.4638E+02
   6.650  0.1312E+01  0.4639E+02
   6.660  0.1318E+01  0.4640E+02
   6.670  0.1326E+01  0.4642E+02
   6.680  0.1333E+01  0.4643E+02
   6.690  0.1338E+01  0.4644E+02
   6.700  0.1343E+01  0.4646E+02
   6.710  0.1348E+01  0.4647E+02
   6.720  0.1351E+01  0.4648E+02
   6.730  0.1355E+01  0.4650E+02
   6.740  0.1359E+01  0.4651E+02
   6.750  0.1365E+01  0.4653E+02
   6.760  0.1373E+01  0.4654E+02
   6.770  0.1379E+01  0.4655E+02
   6.780  0.1381E+01  0.4657E+02
   6.790  0.1386E+01  0.4658E+02
   6.800  0.1391E+01  0.4659E+02
   6.810  0.1395E+01  0.4661E+02
   6.820  0.1400E+01  0.4662E+02
   6.830  0.1405E+01  0.4664E+02
   6.840  0.1410E+01  0.4665E+02
   6.850  0.1413E+01  0.4666E+02
   6.860  0.1416E+01  0.4668E+02
   6.870  0.1424E+01  0.4669E+02
   6.880  0.1429E+01  0.4671E+02
   6.890  0.1435E+01  0.4672E+02
   6.900  0.1442E+01  0.4674E+02
   6.910  0.1450E+01  0.4675E+02
   6.920  0.1457E+01  0.4676E+02
   6.930  0.1465E+01  0.4678E+02
   6.940  0.1473E+01  0.4679E+02
   6.950  0.1480E+01  0.4681E+02
   6.960  0.1485E+01  0.4682E+02
   6.970  0.1494E+01  0.4684E+02
   6.980  0.1500E+01  0.4685E+02
   6.990  0.1508E+01  0.4687E+02
   7.000  0.1519E+01  0.4688E+02
   7.010  0.1523E+01  0.4690E+02
   7.020  0.1528E+01  0.4691E+02
   7.030  0.1537E+01  0.4693E+02
   7.040  0.1546E+01  0.4695E+02
   7.050  0.1548E+01  0.4696E+02
   7.060  0.1551E+01  0.4698E+02
   7.070  0.1557E+01  0.4699E+02
   7.080  0.1562E+01  0.4701E+02
   7.090  0.1566E+01  0.4702E+02
   7.100  0.1573E+01  0.4704E+02
   7.110  0.1580E+01  0.4705E+02
   7.120  0.1589E+01  0.4707E+02
   7.130  0.1604E+01  0.4709E+02
   7.140  0.1630E+01  0.4710E+02
   7.150  0.1687E+01  0.4712E+02
   7.160  0.1710E+01  0.4714E+02
   7.170  0.1760E+01  0.4715E+02
   7.180  0.1804E+01  0.4717E+02
   7.190  0.1771E+01  0.4719E+02
   7.200  0.1742E+01  0.4721E+02
   7.210  0.1715E+01  0.4722E+02
   7.220  0.1692E+01  0.4724E+02
   7.230  0.1673E+01  0.4726E+02
   7.240  0.1660E+01  0.4727E+02
   7.250  0.1648E+01  0.4729E+02
   7.260  0.1641E+01  0.4731E+02
   7.270  0.1633E+01  0.4732E+02
   7.280  0.1626E+01  0.4734E+02
   7.290  0.1636E+01  0.4736E+02
   7.300  0.1664E+01  0.4737E+02
   7.310  0.1691E+01  0.4739E+02
   7.320  0.1758E+01  0.4741E+02
   7.330  0.1922E+01  0.4743E+02
   7.340  0.2035E+01  0.4745E+02
   7.350  0.2028E+01  0.4747E+02
   7.360  0.2015E+01  0.4749E+02
   7.370  0.2071E+01  0.4751E+02
   7.380  0.2363E+01  0.4753E+02
   7.390  0.2353E+01  0.4755E+02
   7.400  0.2228E+01  0.4757E+02
   7.410  0.2103E+01  0.4760E+02
   7.420  0.2074E+01  0.4762E+02
   7.430  0.2011E+01  0.4764E+02
   7.440  0.2085E+01  0.4766E+02
   7.450  0.2317E+01  0.4768E+02
   7.460  0.2601E+01  0.4770E+02
   7.470  0.2665E+01  0.4773E+02
   7.480  0.2672E+01  0.4776E+02
   7.490  0.2612E+01  0.4778E+02
   7.500  0.2587E+01  0.4781E+02
   7.510  0.2582E+01  0.4784E+02
   7.520  0.2628E+01  0.4786E+02
   7.530  0.2697E+01  0.4789E+02
   7.540  0.2732E+01  0.4792E+02
   7.550  0.2730E+01  0.4794E+02
   7.560  0.2731E+01  0.4797E+02
   7.570  0.2743E+01  0.4800E+02
   7.580  0.2768E+01  0.4803E+02
   7.590  0.2793E+01  0.4805E+02
   7.600  0.2837E+01  0.4808E+02
   7.610  0.2884E+01  0.4811E+02
   7.620  0.2963E+01  0.4814E+02
   7.630  0.3284E+01  0.4817E+02
   7.640  0.3314E+01  0.4820E+02
   7.650  0.3345E+01  0.4824E+02
   7.660  0.3381E+01  0.4827E+02
   7.670  0.3424E+01  0.4830E+02
   7.680  0.3490E+01  0.4834E+02
   7.690  0.3600E+01  0.4837E+02
   7.700  0.3673E+01  0.4841E+02
   7.710  0.3769E+01  0.4845E+02
   7.720  0.3795E+01  0.4849E+02
   7.730  0.3725E+01  0.4852E+02
   7.740  0.3684E+01  0.4856E+02
   7.750  0.3659E+01  0.4860E+02
   7.760  0.3639E+01  0.4863E+02
   7.770  0.3729E+01  0.4867E+02
   7.780  0.4046E+01  0.4871E+02
   7.790  0.4361E+01  0.4875E+02
   7.800  0.4520E+01  0.4880E+02
   7.810  0.4554E+01  0.4884E+02
   7.820  0.4753E+01  0.4889E+02
   7.830  0.4710E+01  0.4894E+02
   7.840  0.4835E+01  0.4898E+02
   7.850  0.5179E+01  0.4903E+02
   7.860  0.5272E+01  0.4909E+02
   7.870  0.5209E+01  0.4914E+02
   7.880  0.5322E+01  0.4919E+02
   7.890  0.5486E+01  0.4925E+02
   7.900  0.5657E+01  0.4930E+02
   7.910  0.5659E+01  0.4936E+02
   7.920  0.5662E+01  0.4941E+02
   7.930  0.5696E+01  0.4947E+02
   7.940  0.5760E+01  0.4953E+02
   7.950  0.5840E+01  0.4959E+02
   7.960  0.5964E+01  0.4965E+02
   7.970  0.6147E+01  0.4971E+02
   7.980  0.6228E+01  0.4977E+02
   7.990  0.6345E+01  0.4983E+02
   8.000  0.6493E+01  0.4990E+02
   8.010  0.6576E+01  0.4996E+02
   8.020  0.6680E+01  0.5003E+02
   8.030  0.6793E+01  0.5009E+02
   8.040  0.7032E+01  0.5016E+02
   8.050  0.7034E+01  0.5023E+02
   8.060  0.6999E+01  0.5030E+02
   8.070  0.6896E+01  0.5037E+02
   8.080  0.6948E+01  0.5044E+02
   8.090  0.7217E+01  0.5051E+02
   8.100  0.7326E+01  0.5059E+02
   8.110  0.7346E+01  0.5066E+02
   8.120  0.7200E+01  0.5073E+02
   8.130  0.7010E+01  0.5080E+02
   8.140  0.6956E+01  0.5087E+02
   8.150  0.6956E+01  0.5094E+02
   8.160  0.6995E+01  0.5101E+02
   8.170  0.7063E+01  0.5108E+02
   8.180  0.7323E+01  0.5115E+02
   8.190  0.7464E+01  0.5123E+02
   8.200  0.7469E+01  0.5130E+02
   8.210  0.7413E+01  0.5138E+02
   8.220  0.7413E+01  0.5145E+02
   8.230  0.7530E+01  0.5153E+02
   8.240  0.7588E+01  0.5160E+02
   8.250  0.7503E+01  0.5168E+02
   8.260  0.7568E+01  0.5175E+02
   8.270  0.7658E+01  0.5183E+02
   8.280  0.7813E+01  0.5191E+02
   8.290  0.8075E+01  0.5199E+02
   8.300  0.8359E+01  0.5207E+02
   8.310  0.7665E+01  0.5215E+02
   8.320  0.7227E+01  0.5222E+02
   8.330  0.6827E+01  0.5229E+02
   8.340  0.6761E+01  0.5236E+02
   8.350  0.6776E+01  0.5243E+02
   8.360  0.6747E+01  0.5250E+02
   8.370  0.6771E+01  0.5256E+02
   8.380  0.6794E+01  0.5263E+02
   8.390  0.6785E+01  0.5270E+02
   8.400  0.6792E+01  0.5277E+02
   8.410  0.6920E+01  0.5284E+02
   8.420  0.7154E+01  0.5291E+02
   8.430  0.7334E+01  0.5298E+02
   8.440  0.7510E+01  0.5305E+02
   8.450  0.7530E+01  0.5313E+02
   8.460  0.7615E+01  0.5320E+02
   8.470  0.7749E+01  0.5328E+02
   8.480  0.7883E+01  0.5336E+02
   8.490  0.8058E+01  0.5344E+02
   8.500  0.8280E+01  0.5352E+02
   8.510  0.8514E+01  0.5360E+02
   8.520  0.8738E+01  0.5369E+02
   8.530  0.8989E+01  0.5378E+02
   8.540  0.9243E+01  0.5387E+02
   8.550  0.9653E+01  0.5397E+02
   8.560  0.1048E+02  0.5407E+02
   8.570  0.1116E+02  0.5418E+02
   8.580  0.1006E+02  0.5429E+02
   8.590  0.9817E+01  0.5438E+02
   8.600  0.9615E+01  0.5448E+02
   8.610  0.9382E+01  0.5458E+02
   8.620  0.8990E+01  0.5467E+02
   8.630  0.8946E+01  0.5476E+02
   8.640  0.8974E+01  0.5485E+02
   8.650  0.8617E+01  0.5494E+02
   8.660  0.8556E+01  0.5502E+02
   8.670  0.8332E+01  0.5511E+02
   8.680  0.8246E+01  0.5519E+02
   8.690  0.8212E+01  0.5527E+02
   8.700  0.9068E+01  0.5536E+02
   8.710  0.8572E+01  0.5545E+02
   8.720  0.8438E+01  0.5553E+02
   8.730  0.8450E+01  0.5562E+02
   8.740  0.8511E+01  0.5570E+02
   8.750  0.8495E+01  0.5579E+02
   8.760  0.8556E+01  0.5587E+02
   8.770  0.8568E+01  0.5596E+02
   8.780  0.8643E+01  0.5604E+02
   8.790  0.8715E+01  0.5613E+02
   8.800  0.8796E+01  0.5622E+02
   8.810  0.8862E+01  0.5631E+02
   8.820  0.8399E+01  0.5639E+02
   8.830  0.8238E+01  0.5648E+02
   8.840  0.8096E+01  0.5656E+02
   8.850  0.8029E+01  0.5664E+02
   8.860  0.8087E+01  0.5672E+02
   8.870  0.7535E+01  0.5680E+02
   8.880  0.7128E+01  0.5687E+02
   8.890  0.6958E+01  0.5694E+02
   8.900  0.6825E+01  0.5701E+02
   8.910  0.6742E+01  0.5708E+02
   8.920  0.6849E+01  0.5715E+02
   8.930  0.5547E+01  0.5721E+02
   8.940  0.5507E+01  0.5727E+02
   8.950  0.5578E+01  0.5732E+02
   8.960  0.5761E+01  0.5738E+02
   8.970  0.6104E+01  0.5744E+02
   8.980  0.6274E+01  0.5750E+02
   8.990  0.6255E+01  0.5756E+02
   9.000  0.6443E+01  0.5763E+02
   9.010  0.7222E+01  0.5769E+02
   9.020  0.7103E+01  0.5777E+02
   9.030  0.7123E+01  0.5784E+02
   9.040  0.7365E+01  0.5791E+02
   9.050  0.7665E+01  0.5798E+02
   9.060  0.7740E+01  0.5806E+02
   9.070  0.8044E+01  0.5814E+02
   9.080  0.8232E+01  0.5822E+02
   9.090  0.7893E+01  0.5830E+02
   9.100  0.7714E+01  0.5838E+02
   9.110  0.7730E+01  0.5846E+02
   9.120  0.7936E+01  0.5854E+02
   9.130  0.8258E+01  0.5862E+02
   9.140  0.7842E+01  0.5870E+02
   9.150  0.7408E+01  0.5878E+02
   9.160  0.6191E+01  0.5885E+02
   9.170  0.4971E+01  0.5890E+02
   9.180  0.4836E+01  0.5895E+02
   9.190  0.4815E+01  0.5900E+02
   9.200  0.4834E+01  0.5905E+02
   9.210  0.4936E+01  0.5910E+02
   9.220  0.5161E+01  0.5915E+02
   9.230  0.5746E+01  0.5920E+02
   9.240  0.6036E+01  0.5926E+02
   9.250  0.6243E+01  0.5932E+02
   9.260  0.6368E+01  0.5938E+02
   9.270  0.6512E+01  0.5945E+02
   9.280  0.6820E+01  0.5951E+02
   9.290  0.7395E+01  0.5958E+02
   9.300  0.7537E+01  0.5966E+02
   9.310  0.7292E+01  0.5974E+02
   9.320  0.6487E+01  0.5980E+02
   9.330  0.6202E+01  0.5987E+02
   9.340  0.6104E+01  0.5993E+02
   9.350  0.6166E+01  0.5999E+02
   9.360  0.6193E+01  0.6005E+02
   9.370  0.6189E+01  0.6011E+02
   9.380  0.6160E+01  0.6018E+02
   9.390  0.6140E+01  0.6024E+02
   9.400  0.6061E+01  0.6030E+02
   9.410  0.6109E+01  0.6036E+02
   9.420  0.6199E+01  0.6042E+02
   9.430  0.6432E+01  0.6048E+02
   9.440  0.6615E+01  0.6055E+02
   9.450  0.6730E+01  0.6062E+02
   9.460  0.6931E+01  0.6068E+02
   9.470  0.7110E+01  0.6075E+02
   9.480  0.7183E+01  0.6083E+02
   9.490  0.7225E+01  0.6090E+02
   9.500  0.7186E+01  0.6097E+02
   9.510  0.7200E+01  0.6104E+02
   9.520  0.6977E+01  0.6111E+02
   9.530  0.6839E+01  0.6118E+02
   9.540  0.6773E+01  0.6125E+02
   9.550  0.6286E+01  0.6132E+02
   9.560  0.5872E+01  0.6138E+02
   9.570  0.5337E+01  0.6143E+02
   9.580  0.4748E+01  0.6148E+02
   9.590  0.3989E+01  0.6153E+02
   9.600  0.3787E+01  0.6156E+02
   9.610  0.4199E+01  0.6160E+02
   9.620  0.4946E+01  0.6165E+02
   9.630  0.6102E+01  0.6170E+02
   9.640  0.5960E+01  0.6177E+02
   9.650  0.5616E+01  0.6183E+02
   9.660  0.5544E+01  0.6188E+02
   9.670  0.5516E+01  0.6194E+02
   9.680  0.5649E+01  0.6199E+02
   9.690  0.5953E+01  0.6205E+02
   9.700  0.5812E+01  0.6211E+02
   9.710  0.5823E+01  0.6217E+02
   9.720  0.5727E+01  0.6222E+02
   9.730  0.5393E+01  0.6228E+02
   9.740  0.5139E+01  0.6233E+02
   9.750  0.4957E+01  0.6238E+02
   9.760  0.4798E+01  0.6243E+02
   9.770  0.4671E+01  0.6248E+02
   9.780  0.4557E+01  0.6253E+02
   9.790  0.4445E+01  0.6257E+02
   9.800  0.4338E+01  0.6261E+02
   9.810  0.4250E+01  0.6266E+02
   9.820  0.4163E+01  0.6270E+02
   9.830  0.4071E+01  0.6274E+02
   9.840  0.3962E+01  0.6278E+02
   9.850  0.3933E+01  0.6282E+02
   9.860  0.3890E+01  0.6286E+02
   9.870  0.3822E+01  0.6290E+02
   9.880  0.3793E+01  0.6294E+02
   9.890  0.3755E+01  0.6297E+02
   9.900  0.3448E+01  0.6301E+02
   9.910  0.3226E+01  0.6304E+02
   9.920  0.3084E+01  0.6308E+02
   9.930  0.2889E+01  0.6311E+02
   9.940  0.2729E+01  0.6313E+02
   9.950  0.2599E+01  0.6316E+02
   9.960  0.2514E+01  0.6319E+02
   9.970  0.2453E+01  0.6321E+02
   9.980  0.2394E+01  0.6323E+02
   9.990  0.2352E+01  0.6326E+02
  10.000  0.2327E+01  0.6328E+02
  10.010  0.2299E+01  0.6330E+02
  10.020  0.2291E+01  0.6333E+02
  10.030  0.2297E+01  0.6335E+02
  10.040  0.2314E+01  0.6337E+02
  10.050  0.2358E+01  0.6340E+02
  10.060  0.2462E+01  0.6342E+02
  10.070  0.2831E+01  0.6345E+02
  10.080  0.3005E+01  0.6348E+02
  10.090  0.2124E+01  0.6350E+02
  10.100  0.1997E+01  0.6352E+02
  10.110  0.1871E+01  0.6354E+02
  10.120  0.1854E+01  0.6356E+02
  10.130  0.1700E+01  0.6358E+02
  10.140  0.1620E+01  0.6359E+02
  10.150  0.1577E+01  0.6361E+02
  10.160  0.1523E+01  0.6363E+02
  10.170  0.1430E+01  0.6364E+02
  10.180  0.1202E+01  0.6365E+02
  10.190  0.1117E+01  0.6366E+02
  10.200  0.1007E+01  0.6368E+02
  10.210  0.8823E+00  0.6369E+02
  10.220  0.8268E+00  0.6369E+02
  10.230  0.7127E+00  0.6370E+02
  10.240  0.6592E+00  0.6371E+02
  10.250  0.5997E+00  0.6371E+02
  10.260  0.5493E+00  0.6372E+02
  10.270  0.5346E+00  0.6373E+02
  10.280  0.5268E+00  0.6373E+02
  10.290  0.5248E+00  0.6374E+02
  10.300  0.5245E+00  0.6374E+02
  10.310  0.5261E+00  0.6375E+02
  10.320  0.5417E+00  0.6375E+02
  10.330  0.5584E+00  0.6376E+02
  10.340  0.5792E+00  0.6376E+02
  10.350  0.5950E+00  0.6377E+02
  10.360  0.6048E+00  0.6378E+02
  10.370  0.6234E+00  0.6378E+02
  10.380  0.6474E+00  0.6379E+02
  10.390  0.6864E+00  0.6379E+02
  10.400  0.7107E+00  0.6380E+02
  10.410  0.7332E+00  0.6381E+02
  10.420  0.7622E+00  0.6382E+02
  10.430  0.7874E+00  0.6382E+02
  10.440  0.8400E+00  0.6383E+02
  10.450  0.8537E+00  0.6384E+02
  10.460  0.8633E+00  0.6385E+02
  10.470  0.8436E+00  0.6386E+02
  10.480  0.8192E+00  0.6387E+02
  10.490  0.7993E+00  0.6387E+02
  10.500  0.7724E+00  0.6388E+02
  10.510  0.7444E+00  0.6389E+02
  10.520  0.7181E+00  0.6390E+02
  10.530  0.6946E+00  0.6390E+02
  10.540  0.6681E+00  0.6391E+02
  10.550  0.6412E+00  0.6392E+02
  10.560  0.6048E+00  0.6392E+02
  10.570  0.5692E+00  0.6393E+02
  10.580  0.5446E+00  0.6393E+02
  10.590  0.5191E+00  0.6394E+02
  10.600  0.5040E+00  0.6395E+02
  10.610  0.4709E+00  0.6395E+02
  10.620  0.4310E+00  0.6395E+02
  10.630  0.3973E+00  0.6396E+02
  10.640  0.3659E+00  0.6396E+02
  10.650  0.3250E+00  0.6397E+02
  10.660  0.2899E+00  0.6397E+02
  10.670  0.2595E+00  0.6397E+02
  10.680  0.2243E+00  0.6397E+02
  10.690  0.2032E+00  0.6398E+02
  10.700  0.1882E+00  0.6398E+02
  10.710  0.1735E+00  0.6398E+02
  10.720  0.1601E+00  0.6398E+02
  10.730  0.1500E+00  0.6398E+02
  10.740  0.1413E+00  0.6398E+02
  10.750  0.1293E+00  0.6399E+02
  10.760  0.1188E+00  0.6399E+02
  10.770  0.1111E+00  0.6399E+02
  10.780  0.1031E+00  0.6399E+02
  10.790  0.9563E-01  0.6399E+02
  10.800  0.8987E-01  0.6399E+02
  10.810  0.8309E-01  0.6399E+02
  10.820  0.7674E-01  0.6399E+02
  10.830  0.7089E-01  0.6399E+02
  10.840  0.6651E-01  0.6399E+02
  10.850  0.6089E-01  0.6400E+02
  10.860  0.5654E-01  0.6400E+02
  10.870  0.5126E-01  0.6400E+02
  10.880  0.4643E-01  0.6400E+02
  10.890  0.4208E-01  0.6400E+02
  10.900  0.3858E-01  0.6400E+02
  10.910  0.3655E-01  0.6400E+02
  10.920  0.3371E-01  0.6400E+02
  10.930  0.2993E-01  0.6400E+02
  10.940  0.2577E-01  0.6400E+02
  10.950  0.2178E-01  0.6400E+02
  10.960  0.1884E-01  0.6400E+02
  10.970  0.1504E-01  0.6400E+02
  10.980  0.1077E-01  0.6400E+02
  10.990  0.4635E-02  0.6400E+02
  11.000  0.3931E-03  0.6400E+02
  11.010  0.0000E+00  0.6400E+02
  11.020  0.0000E+00  0.6400E+02
  11.030  0.0000E+00  0.6400E+02
  11.040  0.0000E+00  0.6400E+02
  11.050  0.0000E+00  0.6400E+02
  11.060  0.0000E+00  0.6400E+02
  11.070  0.0000E+00  0.6400E+02
  11.080  0.0000E+00  0.6400E+02
  11.090  0.0000E+00  0.6400E+02
  11.100  0.0000E+00  0.6400E+02
  11.110  0.0000E+00  0.6400E+02
  11.120  0.0000E+00  0.6400E+02
  11.130  0.0000E+00  0.6400E+02
  11.140  0.0000E+00  0.6400E+02
  11.150  0.0000E+00  0.6400E+02
  11.160  0.0000E+00  0.6400E+02
  11.170  0.0000E+00  0.6400E+02
  11.180  0.0000E+00  0.6400E+02
  11.190  0.0000E+00  0.6400E+02
  11.200  0.0000E+00  0.6400E+02
  11.210  0.0000E+00  0.6400E+02
  11.220  0.0000E+00  0.6400E+02
  11.230  0.0000E+00  0.6400E+02
  11.240  0.0000E+00  0.6400E+02
  11.250  0.0000E+00  0.6400E+02
  11.260  0.0000E+00  0.6400E+02
  11.270  0.0000E+00  0.6400E+02
  11.280  0.0000E+00  0.6400E+02
  11.290  0.0000E+00  0.6400E+02
  11.300  0.0000E+00  0.6400E+02
  11.310  0.0000E+00  0.6400E+02
  11.320  0.0000E+00  0.6400E+02
  11.330  0.0000E+00  0.6400E+02
  11.340  0.0000E+00  0.6400E+02
  11.350  0.0000E+00  0.6400E+02
  11.360  0.0000E+00  0.6400E+02
  11.370  0.0000E+00  0.6400E+02
  11.380  0.0000E+00  0.6400E+02
  11.390  0.0000E+00  0.6400E+02
  11.400  0.0000E+00  0.6400E+02
  11.410  0.0000E+00  0.6400E+02
  11.420  0.0000E+00  0.6400E+02
  11.430  0.0000E+00  0.6400E+02
  11.440  0.0000E+00  0.6400E+02
  11.450  0.0000E+00  0.6400E+02
  11.460  0.0000E+00  0.6400E+02
  11.470  0.0000E+00  0.6400E+02
  11.480  0.0000E+00  0.6400E+02
  11.490  0.0000E+00  0.6400E+02
  11.500  0.0000E+00  0.6400E+02
  11.510  0.0000E+00  0.6400E+02
  11.520  0.0000E+00  0.6400E+02
  11.530  0.0000E+00  0.6400E+02
  11.540  0.0000E+00  0.6400E+02
  11.550  0.0000E+00  0.6400E+02
  11.560  0.0000E+00  0.6400E+02
  11.570  0.0000E+00  0.6400E+02
  11.580  0.0000E+00  0.6400E+02
  11.590  0.0000E+00  0.6400E+02
  11.600  0.0000E+00  0.6400E+02
  11.610  0.0000E+00  0.6400E+02
  11.620  0.0000E+00  0.6400E+02
  11.630  0.0000E+00  0.6400E+02
  11.640  0.0000E+00  0.6400E+02
  11.650  0.0000E+00  0.6400E+02
  11.660  0.0000E+00  0.6400E+02
  11.670  0.0000E+00  0.6400E+02
  11.680  0.0000E+00  0.6400E+02
  11.690  0.0000E+00  0.6400E+02
  11.700  0.0000E+00  0.6400E+02
  11.710  0.0000E+00  0.6400E+02
  11.720  0.0000E+00  0.6400E+02
  11.730  0.0000E+00  0.6400E+02
  11.740  0.0000E+00  0.6400E+02
  11.750  0.0000E+00  0.6400E+02
  11.760  0.0000E+00  0.6400E+02
  11.770  0.0000E+00  0.6400E+02
  11.780  0.0000E+00  0.6400E+02
  11.790  0.0000E+00  0.6400E+02
  11.800  0.0000E+00  0.6400E+02
  11.810  0.0000E+00  0.6400E+02
  11.820  0.0000E+00  0.6400E+02
  11.830  0.0000E+00  0.6400E+02
  11.840  0.0000E+00  0.6400E+02
  11.850  0.0000E+00  0.6400E+02
  11.860  0.0000E+00  0.6400E+02
  11.870  0.0000E+00  0.6400E+02
  11.880  0.0000E+00  0.6400E+02
  11.890  0.0000E+00  0.6400E+02
  11.900  0.0000E+00  0.6400E+02
  11.910  0.0000E+00  0.6400E+02
  11.920  0.0000E+00  0.6400E+02
  11.930  0.0000E+00  0.6400E+02
  11.940  0.0000E+00  0.6400E+02
  11.950  0.0000E+00  0.6400E+02
  11.960  0.0000E+00  0.6400E+02
  11.970  0.0000E+00  0.6400E+02
  11.980  0.0000E+00  0.6400E+02
  11.990  0.0000E+00  0.6400E+02
  12.000  0.0000E+00  0.6400E+02
  12.010  0.0000E+00  0.6400E+02
  12.020  0.0000E+00  0.6400E+02
  12.030  0.0000E+00  0.6400E+02
  12.040  0.0000E+00  0.6400E+02
  12.050  0.0000E+00  0.6400E+02
  12.060  0.0000E+00  0.6400E+02
  12.070  0.0000E+00  0.6400E+02
  12.080  0.0000E+00  0.6400E+02
  12.090  0.0000E+00  0.6400E+02
  12.100  0.0000E+00  0.6400E+02
  12.110  0.0000E+00  0.6400E+02
  12.120  0.0000E+00  0.6400E+02
  12.130  0.0000E+00  0.6400E+02
  12.140  0.0000E+00  0.6400E+02
  12.150  0.0000E+00  0.6400E+02
  12.160  0.0000E+00  0.6400E+02
  12.170  0.0000E+00  0.6400E+02
  12.180  0.0000E+00  0.6400E+02
  12.190  0.0000E+00  0.6400E+02
  12.200  0.0000E+00  0.6400E+02
  12.210  0.0000E+00  0.6400E+02
  12.220  0.0000E+00  0.6400E+02
  12.230  0.0000E+00  0.6400E+02
  12.240  0.0000E+00  0.6400E+02
  12.250  0.0000E+00  0.6400E+02
  12.260  0.0000E+00  0.6400E+02
  12.270  0.0000E+00  0.6400E+02
  12.280  0.0000E+00  0.6400E+02
  12.290  0.0000E+00  0.6400E+02
  12.300  0.0000E+00  0.6400E+02
  12.310  0.0000E+00  0.6400E+02
  12.320  0.0000E+00  0.6400E+02
  12.330  0.0000E+00  0.6400E+02
  12.340  0.0000E+00  0.6400E+02
  12.350  0.0000E+00  0.6400E+02
  12.360  0.0000E+00  0.6400E+02
  12.370  0.0000E+00  0.6400E+02
  12.380  0.0000E+00  0.6400E+02
  12.390  0.0000E+00  0.6400E+02
  12.400  0.0000E+00  0.6400E+02
  12.410  0.0000E+00  0.6400E+02
  12.420  0.0000E+00  0.6400E+02
  12.430  0.0000E+00  0.6400E+02
  12.440  0.0000E+00  0.6400E+02
  12.450  0.0000E+00  0.6400E+02
  12.460  0.0000E+00  0.6400E+02
  12.470  0.0000E+00  0.6400E+02
  12.480  0.0000E+00  0.6400E+02
  12.490  0.0000E+00  0.6400E+02
  12.500  0.0000E+00  0.6400E+02
  12.510  0.0000E+00  0.6400E+02
  12.520  0.0000E+00  0.6400E+02
  12.530  0.0000E+00  0.6400E+02
  12.540  0.0000E+00  0.6400E+02
  12.550  0.0000E+00  0.6400E+02
  12.560  0.0000E+00  0.6400E+02
  12.570  0.0000E+00  0.6400E+02
  12.580  0.0000E+00  0.6400E+02
  12.590  0.0000E+00  0.6400E+02
  12.600  0.0000E+00  0.6400E+02
  12.610  0.0000E+00  0.6400E+02
  12.620  0.0000E+00  0.6400E+02
  12.630  0.0000E+00  0.6400E+02
  12.640  0.0000E+00  0.6400E+02
  12.650  0.0000E+00  0.6400E+02
  12.660  0.0000E+00  0.6400E+02
  12.670  0.0000E+00  0.6400E+02
  12.680  0.0000E+00  0.6400E+02
  12.690  0.0000E+00  0.6400E+02
  12.700  0.0000E+00  0.6400E+02
  12.710  0.0000E+00  0.6400E+02
  12.720  0.0000E+00  0.6400E+02
  12.730  0.0000E+00  0.6400E+02
  12.740  0.0000E+00  0.6400E+02
  12.750  0.0000E+00  0.6400E+02
  12.760  0.0000E+00  0.6400E+02
  12.770  0.0000E+00  0.6400E+02
  12.780  0.0000E+00  0.6400E+02
  12.790  0.0000E+00  0.6400E+02
  12.800  0.0000E+00  0.6400E+02
  12.810  0.0000E+00  0.6400E+02
  12.820  0.0000E+00  0.6400E+02
  12.830  0.0000E+00  0.6400E+02
  12.840  0.0000E+00  0.6400E+02
  12.850  0.0000E+00  0.6400E+02
  12.860  0.0000E+00  0.6400E+02
  12.870  0.0000E+00  0.6400E+02
  12.880  0.0000E+00  0.6400E+02
  12.890  0.0000E+00  0.6400E+02
  12.900  0.0000E+00  0.6400E+02
  12.910  0.0000E+00  0.6400E+02
  12.920  0.0000E+00  0.6400E+02
  12.930  0.0000E+00  0.6400E+02
  12.940  0.0000E+00  0.6400E+02
  12.950  0.0000E+00  0.6400E+02
  12.960  0.0000E+00  0.6400E+02
  12.970  0.0000E+00  0.6400E+02
  12.980  0.0000E+00  0.6400E+02
  12.990  0.0000E+00  0.6400E+02
  13.000  0.0000E+00  0.6400E+02
  13.010  0.0000E+00  0.6400E+02
  13.020  0.0000E+00  0.6400E+02
  13.030  0.0000E+00  0.6400E+02
  13.040  0.0000E+00  0.6400E+02
  13.050  0.0000E+00  0.6400E+02
  13.060  0.0000E+00  0.6400E+02
  13.070  0.0000E+00  0.6400E+02
  13.080  0.0000E+00  0.6400E+02
  13.090  0.0000E+00  0.6400E+02
  13.100  0.0000E+00  0.6400E+02
  13.110  0.0000E+00  0.6400E+02
  13.120  0.0000E+00  0.6400E+02
  13.130  0.0000E+00  0.6400E+02
  13.140  0.0000E+00  0.6400E+02
  13.150  0.0000E+00  0.6400E+02
  13.160  0.0000E+00  0.6400E+02
  13.170  0.0000E+00  0.6400E+02
  13.180  0.0000E+00  0.6400E+02
  13.190  0.0000E+00  0.6400E+02
  13.200  0.0000E+00  0.6400E+02
  13.210  0.0000E+00  0.6400E+02
  13.220  0.0000E+00  0.6400E+02
  13.230  0.0000E+00  0.6400E+02
  13.240  0.0000E+00  0.6400E+02
  13.250  0.0000E+00  0.6400E+02
  13.260  0.0000E+00  0.6400E+02
  13.270  0.0000E+00  0.6400E+02
  13.280  0.0000E+00  0.6400E+02
  13.290  0.0000E+00  0.6400E+02
  13.300  0.0000E+00  0.6400E+02
  13.310  0.0000E+00  0.6400E+02
  13.320  0.0000E+00  0.6400E+02
  13.330  0.0000E+00  0.6400E+02
  13.340  0.0000E+00  0.6400E+02
  13.350  0.0000E+00  0.6400E+02
  13.360  0.0000E+00  0.6400E+02
  13.370  0.0000E+00  0.6400E+02
  13.380  0.0000E+00  0.6400E+02
  13.390  0.0000E+00  0.6400E+02
  13.400  0.0000E+00  0.6400E+02
  13.410  0.0000E+00  0.6400E+02
  13.420  0.0000E+00  0.6400E+02
  13.430  0.0000E+00  0.6400E+02
  13.440  0.0000E+00  0.6400E+02
  13.450  0.0000E+00  0.6400E+02
  13.460  0.0000E+00  0.6400E+02
  13.470  0.0000E+00  0.6400E+02
  13.480  0.0000E+00  0.6400E+02
  13.490  0.0000E+00  0.6400E+02
  13.500  0.0000E+00  0.6400E+02
  13.510  0.0000E+00  0.6400E+02
  13.520  0.0000E+00  0.6400E+02
  13.530  0.0000E+00  0.6400E+02
  13.540  0.0000E+00  0.6400E+02
  13.550  0.0000E+00  0.6400E+02
  13.560  0.0000E+00  0.6400E+02
  13.570  0.0000E+00  0.6400E+02
  13.580  0.0000E+00  0.6400E+02
  13.590  0.0000E+00  0.6400E+02
  13.600  0.0000E+00  0.6400E+02
  13.610  0.0000E+00  0.6400E+02
  13.620  0.0000E+00  0.6400E+02
  13.630  0.0000E+00  0.6400E+02
  13.640  0.0000E+00  0.6400E+02
  13.650  0.0000E+00  0.6400E+02
  13.660  0.0000E+00  0.6400E+02
  13.670  0.0000E+00  0.6400E+02
  13.680  0.0000E+00  0.6400E+02
  13.690  0.0000E+00  0.6400E+02
  13.700  0.0000E+00  0.6400E+02
  13.710  0.0000E+00  0.6400E+02
  13.720  0.0000E+00  0.6400E+02
  13.730  0.0000E+00  0.6400E+02
  13.740  0.0000E+00  0.6400E+02
  13.750  0.0000E+00  0.6400E+02
  13.760  0.0000E+00  0.6400E+02
  13.770  0.0000E+00  0.6400E+02
  13.780  0.0000E+00  0.6400E+02
  13.790  0.0000E+00  0.6400E+02
  13.800  0.0000E+00  0.6400E+02
  13.810  0.0000E+00  0.6400E+02
  13.820  0.0000E+00  0.6400E+02
  13.830  0.0000E+00  0.6400E+02
  13.840  0.0000E+00  0.6400E+02
  13.850  0.0000E+00  0.6400E+02
  13.860  0.0000E+00  0.6400E+02
  13.870  0.0000E+00  0.6400E+02
  13.880  0.0000E+00  0.6400E+02
  13.890  0.0000E+00  0.6400E+02
  13.900  0.0000E+00  0.6400E+02
  13.910  0.0000E+00  0.6400E+02
  13.920  0.0000E+00  0.6400E+02
  13.930  0.0000E+00  0.6400E+02
  13.940  0.0000E+00  0.6400E+02
  13.950  0.0000E+00  0.6400E+02
  13.960  0.0000E+00  0.6400E+02
  13.970  0.0000E+00  0.6400E+02
  13.980  0.0000E+00  0.6400E+02
  13.990  0.0000E+00  0.6400E+02
  14.000  0.0000E+00  0.6400E+02
  14.010  0.0000E+00  0.6400E+02
  14.020  0.0000E+00  0.6400E+02
  14.030  0.0000E+00  0.6400E+02
  14.040  0.0000E+00  0.6400E+02
  14.050  0.0000E+00  0.6400E+02
  14.060  0.0000E+00  0.6400E+02
  14.070  0.0000E+00  0.6400E+02
  14.080  0.0000E+00  0.6400E+02
  14.090  0.0000E+00  0.6400E+02
  14.100  0.0000E+00  0.6400E+02
  14.110  0.0000E+00  0.6400E+02
  14.120  0.0000E+00  0.6400E+02
  14.130  0.0000E+00  0.6400E+02
  14.140  0.0000E+00  0.6400E+02
  14.150  0.0000E+00  0.6400E+02
  14.160  0.0000E+00  0.6400E+02
  14.170  0.0000E+00  0.6400E+02
  14.180  0.0000E+00  0.6400E+02
  14.190  0.0000E+00  0.6400E+02
  14.200  0.0000E+00  0.6400E+02
  14.210  0.0000E+00  0.6400E+02
  14.220  0.0000E+00  0.6400E+02
  14.230  0.0000E+00  0.6400E+02
  14.240  0.0000E+00  0.6400E+02
  14.250  0.0000E+00  0.6400E+02
  14.260  0.0000E+00  0.6400E+02
  14.270  0.0000E+00  0.6400E+02
  14.280  0.0000E+00  0.6400E+02
  14.290  0.0000E+00  0.6400E+02
  14.300  0.0000E+00  0.6400E+02
  14.310  0.0000E+00  0.6400E+02
  14.320  0.0000E+00  0.6400E+02
  14.330  0.0000E+00  0.6400E+02
  14.340  0.0000E+00  0.6400E+02
  14.350  0.0000E+00  0.6400E+02
  14.360  0.0000E+00  0.6400E+02
  14.370  0.0000E+00  0.6400E+02
  14.380  0.0000E+00  0.6400E+02
  14.390  0.0000E+00  0.6400E+02
  14.400  0.0000E+00  0.6400E+02
  14.410  0.0000E+00  0.6400E+02
  14.420  0.0000E+00  0.6400E+02
  14.430  0.0000E+00  0.6400E+02
  14.440  0.0000E+00  0.6400E+02
  14.450  0.0000E+00  0.6400E+02
  14.460  0.0000E+00  0.6400E+02
  14.470  0.0000E+00  0.6400E+02
  14.480  0.0000E+00  0.6400E+02
  14.490  0.0000E+00  0.6400E+02
  14.500  0.0000E+00  0.6400E+02
  14.510  0.0000E+00  0.6400E+02
  14.520  0.0000E+00  0.6400E+02
  14.530  0.0000E+00  0.6400E+02
  14.540  0.0000E+00  0.6400E+02
  14.550  0.0000E+00  0.6400E+02
  14.560  0.0000E+00  0.6400E+02
  14.570  0.0000E+00  0.6400E+02
  14.580  0.0000E+00  0.6400E+02
  14.590  0.0000E+00  0.6400E+02
  14.600  0.0000E+00  0.6400E+02
  14.610  0.0000E+00  0.6400E+02
  14.620  0.0000E+00  0.6400E+02
  14.630  0.0000E+00  0.6400E+02
  14.640  0.0000E+00  0.6400E+02
  14.650  0.0000E+00  0.6400E+02
  14.660  0.0000E+00  0.6400E+02
  14.670  0.0000E+00  0.6400E+02
  14.680  0.0000E+00  0.6400E+02
  14.690  0.0000E+00  0.6400E+02
  14.700  0.0000E+00  0.6400E+02
  14.710  0.0000E+00  0.6400E+02
  14.720  0.0000E+00  0.6400E+02
  14.730  0.0000E+00  0.6400E+02
  14.740  0.0000E+00  0.6400E+02
  14.750  0.0000E+00  0.6400E+02
  14.760  0.0000E+00  0.6400E+02
  14.770  0.0000E+00  0.6400E+02
  14.780  0.0000E+00  0.6400E+02
  14.790  0.0000E+00  0.6400E+02
  14.800  0.0000E+00  0.6400E+02
  14.810  0.0000E+00  0.6400E+02
  14.820  0.0000E+00  0.6400E+02
  14.830  0.0000E+00  0.6400E+02
  14.840  0.0000E+00  0.6400E+02
  14.850  0.0000E+00  0.6400E+02
  14.860  0.0000E+00  0.6400E+02
  14.870  0.0000E+00  0.6400E+02
  14.880  0.0000E+00  0.6400E+02
  14.890  0.0000E+00  0.6400E+02
  14.900  0.0000E+00  0.6400E+02
  14.910  0.0000E+00  0.6400E+02
  14.920  0.0000E+00  0.6400E+02
  14.930  0.0000E+00  0.6400E+02
  14.940  0.0000E+00  0.6400E+02
  14.950  0.0000E+00  0.6400E+02
  14.960  0.0000E+00  0.6400E+02
  14.970  0.0000E+00  0.6400E+02
  14.980  0.0000E+00  0.6400E+02
  14.990  0.0000E+00  0.6400E+02
  15.000  0.0000E+00  0.6400E+02
  15.010  0.0000E+00  0.6400E+02
  15.020  0.0000E+00  0.6400E+02
  15.030  0.0000E+00  0.6400E+02
  15.040  0.0000E+00  0.6400E+02
  15.050  0.0000E+00  0.6400E+02
  15.060  0.0000E+00  0.6400E+02
  15.070  0.0000E+00  0.6400E+02
  15.080  0.0000E+00  0.6400E+02
  15.090  0.0000E+00  0.6400E+02
  15.100  0.0000E+00  0.6400E+02
  15.110  0.0000E+00  0.6400E+02
  15.120  0.0000E+00  0.6400E+02
  15.130  0.0000E+00  0.6400E+02
  15.140  0.0000E+00  0.6400E+02
  15.150  0.0000E+00  0.6400E+02
  15.160  0.0000E+00  0.6400E+02
  15.170  0.0000E+00  0.6400E+02
  15.180  0.0000E+00  0.6400E+02
  15.190  0.0000E+00  0.6400E+02
  15.200  0.0000E+00  0.6400E+02
  15.210  0.0000E+00  0.6400E+02
  15.220  0.0000E+00  0.6400E+02
  15.230  0.0000E+00  0.6400E+02
  15.240  0.0000E+00  0.6400E+02
  15.250  0.0000E+00  0.6400E+02
  15.260  0.0000E+00  0.6400E+02
  15.270  0.0000E+00  0.6400E+02
  15.280  0.0000E+00  0.6400E+02
  15.290  0.0000E+00  0.6400E+02
  15.300  0.0000E+00  0.6400E+02
  15.310  0.0000E+00  0.6400E+02
  15.320  0.0000E+00  0.6400E+02
  15.330  0.0000E+00  0.6400E+02
  15.340  0.0000E+00  0.6400E+02
  15.350  0.0000E+00  0.6400E+02
  15.360  0.0000E+00  0.6400E+02
  15.370  0.0000E+00  0.6400E+02
  15.380  0.0000E+00  0.6400E+02
  15.390  0.0000E+00  0.6400E+02
  15.400  0.0000E+00  0.6400E+02
  15.410  0.0000E+00  0.6400E+02
  15.420  0.0000E+00  0.6400E+02
  15.430  0.0000E+00  0.6400E+02
  15.440  0.0000E+00  0.6400E+02
  15.450  0.0000E+00  0.6400E+02
  15.460  0.0000E+00  0.6400E+02
  15.470  0.0000E+00  0.6400E+02
  15.480  0.0000E+00  0.6400E+02
  15.490  0.0000E+00  0.6400E+02
  15.500  0.0000E+00  0.6400E+02
  15.510  0.0000E+00  0.6400E+02
  15.520  0.0000E+00  0.6400E+02
  15.530  0.0000E+00  0.6400E+02
  15.540  0.0000E+00  0.6400E+02
  15.550  0.0000E+00  0.6400E+02
  15.560  0.0000E+00  0.6400E+02
  15.570  0.0000E+00  0.6400E+02
  15.580  0.0000E+00  0.6400E+02
  15.590  0.0000E+00  0.6400E+02
  15.600  0.0000E+00  0.6400E+02
  15.610  0.0000E+00  0.6400E+02
  15.620  0.0000E+00  0.6400E+02
  15.630  0.0000E+00  0.6400E+02
  15.640  0.0000E+00  0.6400E+02
  15.650  0.0000E+00  0.6400E+02
  15.660  0.0000E+00  0.6400E+02
  15.670  0.0000E+00  0.6400E+02
  15.680  0.0000E+00  0.6400E+02
  15.690  0.0000E+00  0.6400E+02
  15.700  0.0000E+00  0.6400E+02
  15.710  0.0000E+00  0.6400E+02
  15.720  0.0000E+00  0.6400E+02
  15.730  0.0000E+00  0.6400E+02
  15.740  0.0000E+00  0.6400E+02
  15.750  0.0000E+00  0.6400E+02
  15.760  0.0000E+00  0.6400E+02
  15.770  0.0000E+00  0.6400E+02
  15.780  0.0000E+00  0.6400E+02
  15.790  0.0000E+00  0.6400E+02
  15.800  0.0000E+00  0.6400E+02
  15.810  0.0000E+00  0.6400E+02
  15.820  0.0000E+00  0.6400E+02
  15.830  0.0000E+00  0.6400E+02
  15.840  0.0000E+00  0.6400E+02
  15.850  0.0000E+00  0.6400E+02
  15.860  0.0000E+00  0.6400E+02
  15.870  0.0000E+00  0.6400E+02
  15.880  0.0000E+00  0.6400E+02
  15.890  0.0000E+00  0.6400E+02
  15.900  0.0000E+00  0.6400E+02
  15.910  0.0000E+00  0.6400E+02
  15.920  0.0000E+00  0.6400E+02
  15.930  0.0000E+00  0.6400E+02
  15.940  0.0000E+00  0.6400E+02
  15.950  0.0000E+00  0.6400E+02
  15.960  0.0000E+00  0.6400E+02
  15.970  0.0000E+00  0.6400E+02
  15.980  0.0000E+00  0.6400E+02
  15.990  0.0000E+00  0.6400E+02
  16.000  0.0000E+00  0.6400E+02
  16.010  0.0000E+00  0.6400E+02
  16.020  0.0000E+00  0.6400E+02
  16.030  0.0000E+00  0.6400E+02
  16.040  0.0000E+00  0.6400E+02
  16.050  0.0000E+00  0.6400E+02
  16.060  0.0000E+00  0.6400E+02
  16.070  0.0000E+00  0.6400E+02
  16.080  0.0000E+00  0.6400E+02
  16.090  0.0000E+00  0.6400E+02
  16.100  0.0000E+00  0.6400E+02
  16.110  0.0000E+00  0.6400E+02
  16.120  0.0000E+00  0.6400E+02
  16.130  0.0000E+00  0.6400E+02
  16.140  0.0000E+00  0.6400E+02
  16.150  0.0000E+00  0.6400E+02
  16.160  0.0000E+00  0.6400E+02
  16.170  0.0000E+00  0.6400E+02
  16.180  0.0000E+00  0.6400E+02
  16.190  0.0000E+00  0.6400E+02
  16.200  0.0000E+00  0.6400E+02
  16.210  0.0000E+00  0.6400E+02
  16.220  0.0000E+00  0.6400E+02
  16.230  0.0000E+00  0.6400E+02
  16.240  0.0000E+00  0.6400E+02
  16.250  0.0000E+00  0.6400E+02
  16.260  0.0000E+00  0.6400E+02
  16.270  0.0000E+00  0.6400E+02
  16.280  0.0000E+00  0.6400E+02
  16.290  0.0000E+00  0.6400E+02
  16.300  0.0000E+00  0.6400E+02
  16.310  0.0000E+00  0.6400E+02
  16.320  0.0000E+00  0.6400E+02
  16.330  0.0000E+00  0.6400E+02
  16.340  0.0000E+00  0.6400E+02
  16.350  0.0000E+00  0.6400E+02
  16.360  0.0000E+00  0.6400E+02
  16.370  0.0000E+00  0.6400E+02
  16.380  0.0000E+00  0.6400E+02
  16.390  0.0000E+00  0.6400E+02
  16.400  0.0000E+00  0.6400E+02
  16.410  0.0000E+00  0.6400E+02
  16.420  0.0000E+00  0.6400E+02
  16.430  0.0000E+00  0.6400E+02
  16.440  0.0000E+00  0.6400E+02
  16.450  0.0000E+00  0.6400E+02
  16.460  0.0000E+00  0.6400E+02
  16.470  0.0000E+00  0.6400E+02
  16.480  0.0000E+00  0.6400E+02
  16.490  0.0000E+00  0.6400E+02
  16.500  0.0000E+00  0.6400E+02
  16.510  0.0000E+00  0.6400E+02
  16.520  0.0000E+00  0.6400E+02
  16.530  0.0000E+00  0.6400E+02
  16.540  0.0000E+00  0.6400E+02
  16.550  0.0000E+00  0.6400E+02
  16.560  0.0000E+00  0.6400E+02
  16.570  0.0000E+00  0.6400E+02
  16.580  0.0000E+00  0.6400E+02
  16.590  0.0000E+00  0.6400E+02
  16.600  0.0000E+00  0.6400E+02
  16.610  0.0000E+00  0.6400E+02
  16.620  0.0000E+00  0.6400E+02
  16.630  0.0000E+00  0.6400E+02
  16.640  0.0000E+00  0.6400E+02
  16.650  0.0000E+00  0.6400E+02
  16.660  0.0000E+00  0.6400E+02
  16.670  0.0000E+00  0.6400E+02
  16.680  0.0000E+00  0.6400E+02
  16.690  0.0000E+00  0.6400E+02
  16.700  0.0000E+00  0.6400E+02
  16.710  0.0000E+00  0.6400E+02
  16.720  0.0000E+00  0.6400E+02
  16.730  0.0000E+00  0.6400E+02
  16.740  0.0000E+00  0.6400E+02
  16.750  0.0000E+00  0.6400E+02
  16.760  0.0000E+00  0.6400E+02
  16.770  0.0000E+00  0.6400E+02
  16.780  0.0000E+00  0.6400E+02
  16.790  0.0000E+00  0.6400E+02
  16.800  0.0000E+00  0.6400E+02
  16.810  0.0000E+00  0.6400E+02
  16.820  0.0000E+00  0.6400E+02
  16.830  0.0000E+00  0.6400E+02
  16.840  0.0000E+00  0.6400E+02
  16.850  0.0000E+00  0.6400E+02
  16.860  0.0000E+00  0.6400E+02
  16.870  0.0000E+00  0.6400E+02
  16.880  0.0000E+00  0.6400E+02
  16.890  0.0000E+00  0.6400E+02
  16.900  0.0000E+00  0.6400E+02
  16.910  0.0000E+00  0.6400E+02
  16.920  0.0000E+00  0.6400E+02
  16.930  0.0000E+00  0.6400E+02
  16.940  0.0000E+00  0.6400E+02
  16.950  0.0000E+00  0.6400E+02
  16.960  0.0000E+00  0.6400E+02
  16.970  0.0000E+00  0.6400E+02
  16.980  0.0000E+00  0.6400E+02
  16.990  0.0000E+00  0.6400E+02
  17.000  0.0000E+00  0.6400E+02
  17.010  0.0000E+00  0.6400E+02
  17.020  0.0000E+00  0.6400E+02
  17.030  0.0000E+00  0.6400E+02
  17.040  0.0000E+00  0.6400E+02
  17.050  0.0000E+00  0.6400E+02
  17.060  0.0000E+00  0.6400E+02
  17.070  0.0000E+00  0.6400E+02
  17.080  0.0000E+00  0.6400E+02
  17.090  0.0000E+00  0.6400E+02
  17.100  0.0000E+00  0.6400E+02
  17.110  0.0000E+00  0.6400E+02
  17.120  0.0000E+00  0.6400E+02
  17.130  0.0000E+00  0.6400E+02
  17.140  0.0000E+00  0.6400E+02
  17.150  0.0000E+00  0.6400E+02
  17.160  0.0000E+00  0.6400E+02
  17.170  0.0000E+00  0.6400E+02
  17.180  0.0000E+00  0.6400E+02
  17.190  0.0000E+00  0.6400E+02
  17.200  0.0000E+00  0.6400E+02
  17.210  0.0000E+00  0.6400E+02
  17.220  0.0000E+00  0.6400E+02
  17.230  0.0000E+00  0.6400E+02
  17.240  0.0000E+00  0.6400E+02
  17.250  0.0000E+00  0.6400E+02
  17.260  0.0000E+00  0.6400E+02
  17.270  0.0000E+00  0.6400E+02
  17.280  0.0000E+00  0.6400E+02
  17.290  0.0000E+00  0.6400E+02
  17.300  0.0000E+00  0.6400E+02
  17.310  0.0000E+00  0.6400E+02
  17.320  0.0000E+00  0.6400E+02
  17.330  0.0000E+00  0.6400E+02
  17.340  0.0000E+00  0.6400E+02
  17.350  0.0000E+00  0.6400E+02
  17.360  0.0000E+00  0.6400E+02
  17.370  0.0000E+00  0.6400E+02
  17.380  0.0000E+00  0.6400E+02
  17.390  0.0000E+00  0.6400E+02
  17.400  0.0000E+00  0.6400E+02
  17.410  0.0000E+00  0.6400E+02
  17.420  0.0000E+00  0.6400E+02
  17.430  0.0000E+00  0.6400E+02
  17.440  0.0000E+00  0.6400E+02
  17.450  0.0000E+00  0.6400E+02
  17.460  0.0000E+00  0.6400E+02
  17.470  0.0000E+00  0.6400E+02
  17.480  0.0000E+00  0.6400E+02
  17.490  0.0000E+00  0.6400E+02
  17.500  0.0000E+00  0.6400E+02
  17.510  0.0000E+00  0.6400E+02
  17.520  0.0000E+00  0.6400E+02
  17.530  0.0000E+00  0.6400E+02
  17.540  0.0000E+00  0.6400E+02
  17.550  0.0000E+00  0.6400E+02
  17.560  0.0000E+00  0.6400E+02
  17.570  0.0000E+00  0.6400E+02
  17.580  0.0000E+00  0.6400E+02
  17.590  0.0000E+00  0.6400E+02
  17.600  0.0000E+00  0.6400E+02
  17.610  0.0000E+00  0.6400E+02
  17.620  0.0000E+00  0.6400E+02
  17.630  0.0000E+00  0.6400E+02
  17.640  0.0000E+00  0.6400E+02
  17.650  0.0000E+00  0.6400E+02
  17.660  0.0000E+00  0.6400E+02
  17.670  0.0000E+00  0.6400E+02
  17.680  0.0000E+00  0.6400E+02
  17.690  0.0000E+00  0.6400E+02
  17.700  0.0000E+00  0.6400E+02
  17.710  0.0000E+00  0.6400E+02
  17.720  0.0000E+00  0.6400E+02
  17.730  0.0000E+00  0.6400E+02
  17.740  0.0000E+00  0.6400E+02
  17.750  0.0000E+00  0.6400E+02
  17.760  0.0000E+00  0.6400E+02
  17.770  0.0000E+00  0.6400E+02
  17.780  0.0000E+00  0.6400E+02
  17.790  0.0000E+00  0.6400E+02
  17.800  0.0000E+00  0.6400E+02
  17.810  0.0000E+00  0.6400E+02
  17.820  0.0000E+00  0.6400E+02
  17.830  0.0000E+00  0.6400E+02
  17.840  0.0000E+00  0.6400E+02
  17.850  0.0000E+00  0.6400E+02
  17.860  0.0000E+00  0.6400E+02
  17.870  0.0000E+00  0.6400E+02
  17.880  0.0000E+00  0.6400E+02
  17.890  0.0000E+00  0.6400E+02
  17.900  0.0000E+00  0.6400E+02
  17.910  0.0000E+00  0.6400E+02
  17.920  0.0000E+00  0.6400E+02
  17.930  0.0000E+00  0.6400E+02
  17.940  0.0000E+00  0.6400E+02
  17.950  0.0000E+00  0.6400E+02
  17.960  0.0000E+00  0.6400E+02
  17.970  0.0000E+00  0.6400E+02
  17.980  0.0000E+00  0.6400E+02
  17.990  0.0000E+00  0.6400E+02
  18.000  0.0000E+00  0.6400E+02
  18.010  0.0000E+00  0.6400E+02
  18.020  0.0000E+00  0.6400E+02
  18.030  0.0000E+00  0.6400E+02
  18.040  0.0000E+00  0.6400E+02
  18.050  0.0000E+00  0.6400E+02
  18.060  0.0000E+00  0.6400E+02
  18.070  0.0000E+00  0.6400E+02
  18.080  0.0000E+00  0.6400E+02
  18.090  0.0000E+00  0.6400E+02
  18.100  0.0000E+00  0.6400E+02
  18.110  0.0000E+00  0.6400E+02
  18.120  0.0000E+00  0.6400E+02
  18.130  0.0000E+00  0.6400E+02
  18.140  0.0000E+00  0.6400E+02
  18.150  0.0000E+00  0.6400E+02
  18.160  0.0000E+00  0.6400E+02
  18.170  0.0000E+00  0.6400E+02
  18.180  0.0000E+00  0.6400E+02
  18.190  0.0000E+00  0.6400E+02
  18.200  0.0000E+00  0.6400E+02
  18.210  0.0000E+00  0.6400E+02
  18.220  0.0000E+00  0.6400E+02
  18.230  0.0000E+00  0.6400E+02
  18.240  0.0000E+00  0.6400E+02
  18.250  0.0000E+00  0.6400E+02
  18.260  0.0000E+00  0.6400E+02
  18.270  0.0000E+00  0.6400E+02
  18.280  0.0000E+00  0.6400E+02
  18.290  0.0000E+00  0.6400E+02
  18.300  0.0000E+00  0.6400E+02
  18.310  0.0000E+00  0.6400E+02
  18.320  0.0000E+00  0.6400E+02
  18.330  0.0000E+00  0.6400E+02
  18.340  0.0000E+00  0.6400E+02
  18.350  0.0000E+00  0.6400E+02
  18.360  0.0000E+00  0.6400E+02
  18.370  0.0000E+00  0.6400E+02
  18.380  0.0000E+00  0.6400E+02
  18.390  0.0000E+00  0.6400E+02
  18.400  0.0000E+00  0.6400E+02
  18.410  0.0000E+00  0.6400E+02
  18.420  0.0000E+00  0.6400E+02
  18.430  0.0000E+00  0.6400E+02
  18.440  0.0000E+00  0.6400E+02
  18.450  0.0000E+00  0.6400E+02
  18.460  0.0000E+00  0.6400E+02
  18.470  0.0000E+00  0.6400E+02
  18.480  0.0000E+00  0.6400E+02
  18.490  0.0000E+00  0.6400E+02
  18.500  0.0000E+00  0.6400E+02
  18.510  0.0000E+00  0.6400E+02
  18.520  0.0000E+00  0.6400E+02
  18.530  0.0000E+00  0.6400E+02
  18.540  0.0000E+00  0.6400E+02
  18.550  0.0000E+00  0.6400E+02
  18.560  0.0000E+00  0.6400E+02
  18.570  0.0000E+00  0.6400E+02
  18.580  0.0000E+00  0.6400E+02
  18.590  0.0000E+00  0.6400E+02
  18.600  0.0000E+00  0.6400E+02
  18.610  0.0000E+00  0.6400E+02
  18.620  0.0000E+00  0.6400E+02
  18.630  0.0000E+00  0.6400E+02
  18.640  0.0000E+00  0.6400E+02
  18.650  0.0000E+00  0.6400E+02
  18.660  0.0000E+00  0.6400E+02
  18.670  0.0000E+00  0.6400E+02
  18.680  0.0000E+00  0.6400E+02
  18.690  0.0000E+00  0.6400E+02
  18.700  0.0000E+00  0.6400E+02
  18.710  0.0000E+00  0.6400E+02
  18.720  0.0000E+00  0.6400E+02
  18.730  0.0000E+00  0.6400E+02
  18.740  0.0000E+00  0.6400E+02
  18.750  0.0000E+00  0.6400E+02
  18.760  0.0000E+00  0.6400E+02
  18.770  0.0000E+00  0.6400E+02
  18.780  0.0000E+00  0.6400E+02
  18.790  0.0000E+00  0.6400E+02
  18.800  0.0000E+00  0.6400E+02
  18.810  0.0000E+00  0.6400E+02
  18.820  0.0000E+00  0.6400E+02
  18.830  0.0000E+00  0.6400E+02
  18.840  0.0000E+00  0.6400E+02
  18.850  0.0000E+00  0.6400E+02
  18.860  0.0000E+00  0.6400E+02
  18.870  0.0000E+00  0.6400E+02
  18.880  0.0000E+00  0.6400E+02
  18.890  0.0000E+00  0.6400E+02
  18.900  0.0000E+00  0.6400E+02
  18.910  0.0000E+00  0.6400E+02
  18.920  0.0000E+00  0.6400E+02
  18.930  0.0000E+00  0.6400E+02
  18.940  0.0000E+00  0.6400E+02
  18.950  0.0000E+00  0.6400E+02
  18.960  0.0000E+00  0.6400E+02
  18.970  0.0000E+00  0.6400E+02
  18.980  0.0000E+00  0.6400E+02
  18.990  0.0000E+00  0.6400E+02
  19.000  0.0000E+00  0.6400E+02
  19.010  0.0000E+00  0.6400E+02
  19.020  0.0000E+00  0.6400E+02
  19.030  0.0000E+00  0.6400E+02
  19.040  0.0000E+00  0.6400E+02
  19.050  0.0000E+00  0.6400E+02
  19.060  0.0000E+00  0.6400E+02
  19.070  0.0000E+00  0.6400E+02
  19.080  0.0000E+00  0.6400E+02
  19.090  0.0000E+00  0.6400E+02
  19.100  0.0000E+00  0.6400E+02
  19.110  0.0000E+00  0.6400E+02
  19.120  0.0000E+00  0.6400E+02
  19.130  0.0000E+00  0.6400E+02
  19.140  0.0000E+00  0.6400E+02
  19.150  0.0000E+00  0.6400E+02
  19.160  0.0000E+00  0.6400E+02
  19.170  0.0000E+00  0.6400E+02
  19.180  0.0000E+00  0.6400E+02
  19.190  0.0000E+00  0.6400E+02
  19.200  0.0000E+00  0.6400E+02
  19.210  0.0000E+00  0.6400E+02
  19.220  0.0000E+00  0.6400E+02
  19.230  0.0000E+00  0.6400E+02
  19.240  0.0000E+00  0.6400E+02
  19.250  0.0000E+00  0.6400E+02
  19.260  0.0000E+00  0.6400E+02
  19.270  0.0000E+00  0.6400E+02
  19.280  0.0000E+00  0.6400E+02
  19.290  0.0000E+00  0.6400E+02
  19.300  0.0000E+00  0.6400E+02
  19.310  0.0000E+00  0.6400E+02
  19.320  0.0000E+00  0.6400E+02
  19.330  0.0000E+00  0.6400E+02
  19.340  0.0000E+00  0.6400E+02
  19.350  0.0000E+00  0.6400E+02
  19.360  0.0000E+00  0.6400E+02
  19.370  0.0000E+00  0.6400E+02
  19.380  0.0000E+00  0.6400E+02
  19.390  0.0000E+00  0.6400E+02
  19.400  0.0000E+00  0.6400E+02
  19.410  0.0000E+00  0.6400E+02
  19.420  0.0000E+00  0.6400E+02
  19.430  0.0000E+00  0.6400E+02
  19.440  0.0000E+00  0.6400E+02
  19.450  0.0000E+00  0.6400E+02
  19.460  0.0000E+00  0.6400E+02
  19.470  0.0000E+00  0.6400E+02
  19.480  0.0000E+00  0.6400E+02
  19.490  0.0000E+00  0.6400E+02
  19.500  0.0000E+00  0.6400E+02
  19.510  0.0000E+00  0.6400E+02
  19.520  0.0000E+00  0.6400E+02
  19.530  0.0000E+00  0.6400E+02
  19.540  0.0000E+00  0.6400E+02
  19.550  0.0000E+00  0.6400E+02
  19.560  0.0000E+00  0.6400E+02
  19.570  0.0000E+00  0.6400E+02
  19.580  0.0000E+00  0.6400E+02
  19.590  0.0000E+00  0.6400E+02
  19.600  0.0000E+00  0.6400E+02
  19.610  0.0000E+00  0.6400E+02
  19.620  0.0000E+00  0.6400E+02
  19.630  0.0000E+00  0.6400E+02
  19.640  0.0000E+00  0.6400E+02
  19.650  0.0000E+00  0.6400E+02
  19.660  0.0000E+00  0.6400E+02
  19.670  0.0000E+00  0.6400E+02
  19.680  0.0000E+00  0.6400E+02
  19.690  0.0000E+00  0.6400E+02
  19.700  0.0000E+00  0.6400E+02
  19.710  0.0000E+00  0.6400E+02
  19.720  0.0000E+00  0.6400E+02
  19.730  0.0000E+00  0.6400E+02
  19.740  0.0000E+00  0.6400E+02
  19.750  0.0000E+00  0.6400E+02
  19.760  0.0000E+00  0.6400E+02
  19.770  0.0000E+00  0.6400E+02
  19.780  0.0000E+00  0.6400E+02
  19.790  0.0000E+00  0.6400E+02
  19.800  0.0000E+00  0.6400E+02
  19.810  0.0000E+00  0.6400E+02
  19.820  0.0000E+00  0.6400E+02
  19.830  0.0000E+00  0.6400E+02
  19.840  0.0000E+00  0.6400E+02
  19.850  0.0000E+00  0.6400E+02
  19.860  0.0000E+00  0.6400E+02
  19.870  0.0000E+00  0.6400E+02
  19.880  0.0000E+00  0.6400E+02
  19.890  0.0000E+00  0.6400E+02
  19.900  0.0000E+00  0.6400E+02
  19.910  0.0000E+00  0.6400E+02
  19.920  0.0000E+00  0.6400E+02
  19.930  0.0000E+00  0.6400E+02
  19.940  0.0000E+00  0.6400E+02
  19.950  0.0000E+00  0.6400E+02
  19.960  0.0000E+00  0.6400E+02
  19.970  0.0000E+00  0.6400E+02
  19.980  0.0000E+00  0.6400E+02
  19.990  0.0000E+00  0.6400E+02
  20.000  0.0000E+00  0.6400E+02
